" File: 160128_ReferenceSpectra\7.IRR
" RAD->  Wave:366.44nm  Pix:434  Val:  0.000  Time:600ms  Avg:5  Sm:1  Sg:1  Tc:off  SNAP  Xt:1  Ch:1  Xtrig wnmcal >RAD-IS6.CAL
 180.00  0.0000E+000
 180.50  0.0000E+000
 181.00  0.0000E+000
 181.50  0.0000E+000
 182.00  0.0000E+000
 182.50  0.0000E+000
 183.00  0.0000E+000
 183.50  0.0000E+000
 184.00  0.0000E+000
 184.50  0.0000E+000
 185.00  0.0000E+000
 185.50  0.0000E+000
 186.00  0.0000E+000
 186.50  0.0000E+000
 187.00  0.0000E+000
 187.50  0.0000E+000
 188.00  0.0000E+000
 188.50  0.0000E+000
 189.00  0.0000E+000
 189.50  0.0000E+000
 190.00  0.0000E+000
 190.50  0.0000E+000
 191.00  0.0000E+000
 191.50  0.0000E+000
 192.00  0.0000E+000
 192.50  0.0000E+000
 193.00  0.0000E+000
 193.50  0.0000E+000
 194.00  0.0000E+000
 194.50  0.0000E+000
 195.00  0.0000E+000
 195.50  0.0000E+000
 196.00  0.0000E+000
 196.50  0.0000E+000
 197.00  0.0000E+000
 197.50  0.0000E+000
 198.00  0.0000E+000
 198.50  0.0000E+000
 199.00  0.0000E+000
 199.50  0.0000E+000
 200.00  0.0000E+000
 200.50  0.0000E+000
 201.00  0.0000E+000
 201.50  0.0000E+000
 202.00  0.0000E+000
 202.50  0.0000E+000
 203.00  0.0000E+000
 203.50  0.0000E+000
 204.00  0.0000E+000
 204.50  0.0000E+000
 205.00  0.0000E+000
 205.50  0.0000E+000
 206.00  0.0000E+000
 206.50  0.0000E+000
 207.00  0.0000E+000
 207.50  0.0000E+000
 208.00  0.0000E+000
 208.50  0.0000E+000
 209.00  0.0000E+000
 209.50  0.0000E+000
 210.00  0.0000E+000
 210.50  0.0000E+000
 211.00  0.0000E+000
 211.50  0.0000E+000
 212.00  0.0000E+000
 212.50  0.0000E+000
 213.00  0.0000E+000
 213.50  0.0000E+000
 214.00  0.0000E+000
 214.50  0.0000E+000
 215.00  0.0000E+000
 215.50  0.0000E+000
 216.00  0.0000E+000
 216.50  0.0000E+000
 217.00  0.0000E+000
 217.50  0.0000E+000
 218.00  0.0000E+000
 218.50  0.0000E+000
 219.00  0.0000E+000
 219.50  0.0000E+000
 220.00  0.0000E+000
 220.50  0.0000E+000
 221.00  0.0000E+000
 221.50  0.0000E+000
 222.00  0.0000E+000
 222.50  0.0000E+000
 223.00  0.0000E+000
 223.50  0.0000E+000
 224.00  0.0000E+000
 224.50  0.0000E+000
 225.00  0.0000E+000
 225.50  0.0000E+000
 226.00  0.0000E+000
 226.50  0.0000E+000
 227.00  0.0000E+000
 227.50  0.0000E+000
 228.00  0.0000E+000
 228.50  0.0000E+000
 229.00  0.0000E+000
 229.50  0.0000E+000
 230.00  0.0000E+000
 230.50  0.0000E+000
 231.00  0.0000E+000
 231.50  0.0000E+000
 232.00  0.0000E+000
 232.50  0.0000E+000
 233.00  0.0000E+000
 233.50  0.0000E+000
 234.00  0.0000E+000
 234.50  0.0000E+000
 235.00  0.0000E+000
 235.50  0.0000E+000
 236.00  0.0000E+000
 236.50  0.0000E+000
 237.00  0.0000E+000
 237.50  0.0000E+000
 238.00  0.0000E+000
 238.50  0.0000E+000
 239.00  0.0000E+000
 239.50  0.0000E+000
 240.00  0.0000E+000
 240.50  0.0000E+000
 241.00  0.0000E+000
 241.50  0.0000E+000
 242.00  0.0000E+000
 242.50  0.0000E+000
 243.00  0.0000E+000
 243.50  0.0000E+000
 244.00  0.0000E+000
 244.50  0.0000E+000
 245.00  0.0000E+000
 245.50  0.0000E+000
 246.00  0.0000E+000
 246.50  0.0000E+000
 247.00  0.0000E+000
 247.50  0.0000E+000
 248.00  0.0000E+000
 248.50  0.0000E+000
 249.00  0.0000E+000
 249.50  0.0000E+000
 250.00  0.0000E+000
 250.50  0.0000E+000
 251.00  0.0000E+000
 251.50  0.0000E+000
 252.00  0.0000E+000
 252.50  0.0000E+000
 253.00  0.0000E+000
 253.50  0.0000E+000
 254.00  0.0000E+000
 254.50  0.0000E+000
 255.00  0.0000E+000
 255.50  0.0000E+000
 256.00  0.0000E+000
 256.50  0.0000E+000
 257.00  0.0000E+000
 257.50  0.0000E+000
 258.00  0.0000E+000
 258.50  0.0000E+000
 259.00  0.0000E+000
 259.50  0.0000E+000
 260.00  0.0000E+000
 260.50  0.0000E+000
 261.00  0.0000E+000
 261.50  0.0000E+000
 262.00  0.0000E+000
 262.50  0.0000E+000
 263.00  0.0000E+000
 263.50  0.0000E+000
 264.00  0.0000E+000
 264.50  0.0000E+000
 265.00  0.0000E+000
 265.50  0.0000E+000
 266.00  0.0000E+000
 266.50  0.0000E+000
 267.00  0.0000E+000
 267.50  0.0000E+000
 268.00  0.0000E+000
 268.50  0.0000E+000
 269.00  0.0000E+000
 269.50  0.0000E+000
 270.00  0.0000E+000
 270.50  0.0000E+000
 271.00  0.0000E+000
 271.50  0.0000E+000
 272.00  0.0000E+000
 272.50  0.0000E+000
 273.00  0.0000E+000
 273.50  0.0000E+000
 274.00  0.0000E+000
 274.50  0.0000E+000
 275.00  0.0000E+000
 275.50  0.0000E+000
 276.00  0.0000E+000
 276.50  0.0000E+000
 277.00  0.0000E+000
 277.50  0.0000E+000
 278.00  0.0000E+000
 278.50  0.0000E+000
 279.00  0.0000E+000
 279.50  0.0000E+000
 280.00  0.0000E+000
 280.50  0.0000E+000
 281.00  0.0000E+000
 281.50  0.0000E+000
 282.00  0.0000E+000
 282.50  0.0000E+000
 283.00  0.0000E+000
 283.50  0.0000E+000
 284.00  0.0000E+000
 284.50  0.0000E+000
 285.00  0.0000E+000
 285.50  0.0000E+000
 286.00  0.0000E+000
 286.50  0.0000E+000
 287.00  0.0000E+000
 287.50  0.0000E+000
 288.00  0.0000E+000
 288.50  0.0000E+000
 289.00  0.0000E+000
 289.50  0.0000E+000
 290.00  0.0000E+000
 290.50  0.0000E+000
 291.00  0.0000E+000
 291.50  0.0000E+000
 292.00  0.0000E+000
 292.50  0.0000E+000
 293.00  0.0000E+000
 293.50  0.0000E+000
 294.00  0.0000E+000
 294.50  0.0000E+000
 295.00  0.0000E+000
 295.50  0.0000E+000
 296.00  0.0000E+000
 296.50  0.0000E+000
 297.00  0.0000E+000
 297.50  0.0000E+000
 298.00  0.0000E+000
 298.50  0.0000E+000
 299.00  0.0000E+000
 299.50  0.0000E+000
 300.00  0.0000E+000
 300.50  0.0000E+000
 301.00  0.0000E+000
 301.50  0.0000E+000
 302.00  0.0000E+000
 302.50  0.0000E+000
 303.00  0.0000E+000
 303.50  0.0000E+000
 304.00  0.0000E+000
 304.50  0.0000E+000
 305.00  0.0000E+000
 305.50  0.0000E+000
 306.00  0.0000E+000
 306.50  0.0000E+000
 307.00  0.0000E+000
 307.50  0.0000E+000
 308.00  0.0000E+000
 308.50  0.0000E+000
 309.00  0.0000E+000
 309.50  0.0000E+000
 310.00  0.0000E+000
 310.50  0.0000E+000
 311.00  0.0000E+000
 311.50  0.0000E+000
 312.00  0.0000E+000
 312.50  0.0000E+000
 313.00  0.0000E+000
 313.50  0.0000E+000
 314.00  0.0000E+000
 314.50  0.0000E+000
 315.00  0.0000E+000
 315.50  0.0000E+000
 316.00  0.0000E+000
 316.50  0.0000E+000
 317.00  0.0000E+000
 317.50  0.0000E+000
 318.00  0.0000E+000
 318.50  0.0000E+000
 319.00  0.0000E+000
 319.50  0.0000E+000
 320.00  0.0000E+000
 320.50  0.0000E+000
 321.00  0.0000E+000
 321.50  0.0000E+000
 322.00  0.0000E+000
 322.50  0.0000E+000
 323.00  0.0000E+000
 323.50  0.0000E+000
 324.00  0.0000E+000
 324.50  0.0000E+000
 325.00  0.0000E+000
 325.50  0.0000E+000
 326.00  0.0000E+000
 326.50  0.0000E+000
 327.00  0.0000E+000
 327.50  0.0000E+000
 328.00  0.0000E+000
 328.50  0.0000E+000
 329.00  0.0000E+000
 329.50  0.0000E+000
 330.00  0.0000E+000
 330.50  0.0000E+000
 331.00  0.0000E+000
 331.50  0.0000E+000
 332.00  0.0000E+000
 332.50  0.0000E+000
 333.00  0.0000E+000
 333.50  0.0000E+000
 334.00  0.0000E+000
 334.50  0.0000E+000
 335.00  0.0000E+000
 335.50  0.0000E+000
 336.00  0.0000E+000
 336.50  0.0000E+000
 337.00  0.0000E+000
 337.50  0.0000E+000
 338.00  0.0000E+000
 338.50  0.0000E+000
 339.00  0.0000E+000
 339.50  0.0000E+000
 340.00  0.0000E+000
 340.50  0.0000E+000
 341.00  0.0000E+000
 341.50  0.0000E+000
 342.00  0.0000E+000
 342.50  0.0000E+000
 343.00  0.0000E+000
 343.50  0.0000E+000
 344.00  0.0000E+000
 344.50  0.0000E+000
 345.00  0.0000E+000
 345.50  0.0000E+000
 346.00  0.0000E+000
 346.50  0.0000E+000
 347.00  0.0000E+000
 347.50  0.0000E+000
 348.00  0.0000E+000
 348.50  0.0000E+000
 349.00  0.0000E+000
 349.50  0.0000E+000
 350.00  0.0000E+000
 350.50  0.0000E+000
 351.00  0.0000E+000
 351.50  0.0000E+000
 352.00  0.0000E+000
 352.50  0.0000E+000
 353.00  0.0000E+000
 353.50  0.0000E+000
 354.00  0.0000E+000
 354.50  0.0000E+000
 355.00  0.0000E+000
 355.50  0.0000E+000
 356.00  0.0000E+000
 356.50  0.0000E+000
 357.00  0.0000E+000
 357.50  0.0000E+000
 358.00  0.0000E+000
 358.50  0.0000E+000
 359.00  0.0000E+000
 359.50  5.2936E-009
 360.00  5.8720E-008
 360.50  8.0746E-008
 361.00  6.6474E-008
 361.50  5.6137E-008
 362.00  5.5472E-008
 362.50  6.5043E-008
 363.00  7.7465E-008
 363.50  7.5958E-008
 364.00  7.0636E-008
 364.50  6.5662E-008
 365.00  7.6268E-008
 365.50  1.0068E-007
 366.00  1.1864E-007
 366.50  1.3163E-007
 367.00  1.5402E-007
 367.50  1.4914E-007
 368.00  1.5278E-007
 368.50  1.6010E-007
 369.00  1.4784E-007
 369.50  1.3101E-007
 370.00  1.1148E-007
 370.50  9.8876E-008
 371.00  1.0328E-007
 371.50  1.2667E-007
 372.00  1.5467E-007
 372.50  1.7500E-007
 373.00  1.8849E-007
 373.50  2.0871E-007
 374.00  2.4990E-007
 374.50  2.4725E-007
 375.00  2.3937E-007
 375.50  2.4799E-007
 376.00  2.3725E-007
 376.50  2.3146E-007
 377.00  2.5403E-007
 377.50  2.5868E-007
 378.00  2.4863E-007
 378.50  2.2834E-007
 379.00  2.1820E-007
 379.50  2.1092E-007
 380.00  2.0276E-007
 380.50  1.9160E-007
 381.00  1.8369E-007
 381.50  1.7850E-007
 382.00  1.8510E-007
 382.50  2.0326E-007
 383.00  1.9809E-007
 383.50  1.8056E-007
 384.00  1.5960E-007
 384.50  1.3330E-007
 385.00  1.1908E-007
 385.50  1.3365E-007
 386.00  1.5604E-007
 386.50  1.5911E-007
 387.00  1.6807E-007
 387.50  1.7832E-007
 388.00  1.8122E-007
 388.50  1.9991E-007
 389.00  2.2624E-007
 389.50  2.3259E-007
 390.00  2.3206E-007
 390.50  2.3253E-007
 391.00  2.3796E-007
 391.50  2.4460E-007
 392.00  2.6379E-007
 392.50  2.9237E-007
 393.00  3.0113E-007
 393.50  2.5613E-007
 394.00  2.3802E-007
 394.50  2.1710E-007
 395.00  1.5338E-007
 395.50  1.4977E-007
 396.00  1.4822E-007
 396.50  1.5269E-007
 397.00  1.7170E-007
 397.50  1.8097E-007
 398.00  2.1248E-007
 398.50  2.4058E-007
 399.00  2.6389E-007
 399.50  3.0756E-007
 400.00  3.4298E-007
 400.50  3.5680E-007
 401.00  3.4065E-007
 401.50  3.1517E-007
 402.00  3.0374E-007
 402.50  2.9220E-007
 403.00  2.9227E-007
 403.50  3.0367E-007
 404.00  3.0847E-007
 404.50  3.0936E-007
 405.00  3.3007E-007
 405.50  3.3158E-007
 406.00  3.2954E-007
 406.50  3.3284E-007
 407.00  3.2071E-007
 407.50  3.0154E-007
 408.00  3.0047E-007
 408.50  3.0323E-007
 409.00  3.0214E-007
 409.50  2.9737E-007
 410.00  3.0605E-007
 410.50  3.1601E-007
 411.00  3.2073E-007
 411.50  3.1667E-007
 412.00  3.0775E-007
 412.50  2.9761E-007
 413.00  3.1233E-007
 413.50  3.0602E-007
 414.00  3.1741E-007
 414.50  3.2965E-007
 415.00  3.3606E-007
 415.50  3.6494E-007
 416.00  4.2161E-007
 416.50  4.8305E-007
 417.00  5.3169E-007
 417.50  5.7324E-007
 418.00  6.0449E-007
 418.50  6.5024E-007
 419.00  6.6794E-007
 419.50  6.7466E-007
 420.00  6.7352E-007
 420.50  6.7068E-007
 421.00  6.4832E-007
 421.50  6.5028E-007
 422.00  6.7317E-007
 422.50  6.8341E-007
 423.00  6.9096E-007
 423.50  7.2732E-007
 424.00  7.3417E-007
 424.50  7.4282E-007
 425.00  7.6146E-007
 425.50  7.7657E-007
 426.00  7.8267E-007
 426.50  8.0086E-007
 427.00  8.2078E-007
 427.50  8.4000E-007
 428.00  8.0263E-007
 428.50  8.0247E-007
 429.00  8.1455E-007
 429.50  8.0391E-007
 430.00  8.1778E-007
 430.50  8.2242E-007
 431.00  8.0125E-007
 431.50  7.7831E-007
 432.00  7.9097E-007
 432.50  8.2409E-007
 433.00  8.8804E-007
 433.50  9.4349E-007
 434.00  9.9225E-007
 434.50  1.0444E-006
 435.00  1.0858E-006
 435.50  1.1318E-006
 436.00  1.1876E-006
 436.50  1.2433E-006
 437.00  1.2997E-006
 437.50  1.3523E-006
 438.00  1.3967E-006
 438.50  1.4291E-006
 439.00  1.4638E-006
 439.50  1.5082E-006
 440.00  1.5601E-006
 440.50  1.5886E-006
 441.00  1.6269E-006
 441.50  1.6821E-006
 442.00  1.7468E-006
 442.50  1.8247E-006
 443.00  1.9160E-006
 443.50  1.9878E-006
 444.00  2.0475E-006
 444.50  2.0914E-006
 445.00  2.1497E-006
 445.50  2.2224E-006
 446.00  2.3109E-006
 446.50  2.4035E-006
 447.00  2.4956E-006
 447.50  2.5867E-006
 448.00  2.6663E-006
 448.50  2.7294E-006
 449.00  2.8081E-006
 449.50  2.9003E-006
 450.00  3.0021E-006
 450.50  3.1299E-006
 451.00  3.2638E-006
 451.50  3.3968E-006
 452.00  3.5243E-006
 452.50  3.6558E-006
 453.00  3.8039E-006
 453.50  3.9762E-006
 454.00  4.2032E-006
 454.50  4.4258E-006
 455.00  4.6684E-006
 455.50  4.9201E-006
 456.00  5.1743E-006
 456.50  5.4146E-006
 457.00  5.6865E-006
 457.50  5.9695E-006
 458.00  6.2529E-006
 458.50  6.5553E-006
 459.00  6.8955E-006
 459.50  7.2500E-006
 460.00  7.6327E-006
 460.50  8.0494E-006
 461.00  8.4907E-006
 461.50  8.9537E-006
 462.00  9.4491E-006
 462.50  9.9740E-006
 463.00  1.0525E-005
 463.50  1.1111E-005
 464.00  1.1737E-005
 464.50  1.2432E-005
 465.00  1.3157E-005
 465.50  1.3933E-005
 466.00  1.4758E-005
 466.50  1.5635E-005
 467.00  1.6581E-005
 467.50  1.7606E-005
 468.00  1.8703E-005
 468.50  1.9863E-005
 469.00  2.1100E-005
 469.50  2.2392E-005
 470.00  2.3773E-005
 470.50  2.5246E-005
 471.00  2.6805E-005
 471.50  2.8438E-005
 472.00  3.0180E-005
 472.50  3.2045E-005
 473.00  3.4026E-005
 473.50  3.6171E-005
 474.00  3.8458E-005
 474.50  4.0847E-005
 475.00  4.3288E-005
 475.50  4.5837E-005
 476.00  4.8527E-005
 476.50  5.1403E-005
 477.00  5.4495E-005
 477.50  5.7818E-005
 478.00  6.1359E-005
 478.50  6.5088E-005
 479.00  6.8925E-005
 479.50  7.2927E-005
 480.00  7.7064E-005
 480.50  8.1367E-005
 481.00  8.5891E-005
 481.50  9.0687E-005
 482.00  9.5702E-005
 482.50  1.0087E-004
 483.00  1.0615E-004
 483.50  1.1149E-004
 484.00  1.1687E-004
 484.50  1.2230E-004
 485.00  1.2775E-004
 485.50  1.3316E-004
 486.00  1.3846E-004
 486.50  1.4360E-004
 487.00  1.4853E-004
 487.50  1.5323E-004
 488.00  1.5767E-004
 488.50  1.6177E-004
 489.00  1.6549E-004
 489.50  1.6874E-004
 490.00  1.7154E-004
 490.50  1.7394E-004
 491.00  1.7594E-004
 491.50  1.7764E-004
 492.00  1.7906E-004
 492.50  1.8014E-004
 493.00  1.8083E-004
 493.50  1.8102E-004
 494.00  1.8061E-004
 494.50  1.7958E-004
 495.00  1.7799E-004
 495.50  1.7596E-004
 496.00  1.7352E-004
 496.50  1.7069E-004
 497.00  1.6747E-004
 497.50  1.6385E-004
 498.00  1.5986E-004
 498.50  1.5550E-004
 499.00  1.5094E-004
 499.50  1.4626E-004
 500.00  1.4152E-004
 500.50  1.3674E-004
 501.00  1.3195E-004
 501.50  1.2714E-004
 502.00  1.2233E-004
 502.50  1.1752E-004
 503.00  1.1274E-004
 503.50  1.0800E-004
 504.00  1.0333E-004
 504.50  9.8773E-005
 505.00  9.4335E-005
 505.50  9.0025E-005
 506.00  8.5839E-005
 506.50  8.1800E-005
 507.00  7.7951E-005
 507.50  7.4274E-005
 508.00  7.0761E-005
 508.50  6.7396E-005
 509.00  6.4161E-005
 509.50  6.1070E-005
 510.00  5.8147E-005
 510.50  5.5360E-005
 511.00  5.2732E-005
 511.50  5.0228E-005
 512.00  4.7815E-005
 512.50  4.5490E-005
 513.00  4.3249E-005
 513.50  4.1096E-005
 514.00  3.9025E-005
 514.50  3.7050E-005
 515.00  3.5195E-005
 515.50  3.3440E-005
 516.00  3.1767E-005
 516.50  3.0182E-005
 517.00  2.8679E-005
 517.50  2.7234E-005
 518.00  2.5857E-005
 518.50  2.4546E-005
 519.00  2.3271E-005
 519.50  2.2041E-005
 520.00  2.0871E-005
 520.50  1.9736E-005
 521.00  1.8644E-005
 521.50  1.7616E-005
 522.00  1.6644E-005
 522.50  1.5732E-005
 523.00  1.4898E-005
 523.50  1.4125E-005
 524.00  1.3396E-005
 524.50  1.2720E-005
 525.00  1.2061E-005
 525.50  1.1426E-005
 526.00  1.0812E-005
 526.50  1.0226E-005
 527.00  9.6666E-006
 527.50  9.1355E-006
 528.00  8.6195E-006
 528.50  8.1307E-006
 529.00  7.6839E-006
 529.50  7.2467E-006
 530.00  6.8736E-006
 530.50  6.5240E-006
 531.00  6.1970E-006
 531.50  5.8870E-006
 532.00  5.6056E-006
 532.50  5.3182E-006
 533.00  5.0700E-006
 533.50  4.8541E-006
 534.00  4.6567E-006
 534.50  4.4515E-006
 535.00  4.2517E-006
 535.50  4.0636E-006
 536.00  3.8573E-006
 536.50  3.6384E-006
 537.00  3.4940E-006
 537.50  3.3757E-006
 538.00  3.2604E-006
 538.50  3.1745E-006
 539.00  3.1131E-006
 539.50  3.0271E-006
 540.00  2.9234E-006
 540.50  2.8541E-006
 541.00  2.7618E-006
 541.50  2.7134E-006
 542.00  2.6151E-006
 542.50  2.5223E-006
 543.00  2.4249E-006
 543.50  2.3187E-006
 544.00  2.2438E-006
 544.50  2.1941E-006
 545.00  2.1427E-006
 545.50  2.1290E-006
 546.00  2.1144E-006
 546.50  2.0973E-006
 547.00  2.1100E-006
 547.50  2.0983E-006
 548.00  2.0499E-006
 548.50  1.9923E-006
 549.00  1.9141E-006
 549.50  1.8236E-006
 550.00  1.7686E-006
 550.50  1.7600E-006
 551.00  1.6620E-006
 551.50  1.5815E-006
 552.00  1.5388E-006
 552.50  1.4962E-006
 553.00  1.4573E-006
 553.50  1.4850E-006
 554.00  1.4821E-006
 554.50  1.4501E-006
 555.00  1.3830E-006
 555.50  1.3414E-006
 556.00  1.3400E-006
 556.50  1.3482E-006
 557.00  1.3465E-006
 557.50  1.3446E-006
 558.00  1.3377E-006
 558.50  1.3158E-006
 559.00  1.2702E-006
 559.50  1.2292E-006
 560.00  1.1921E-006
 560.50  1.1479E-006
 561.00  1.1012E-006
 561.50  1.0713E-006
 562.00  1.0780E-006
 562.50  1.0612E-006
 563.00  1.0724E-006
 563.50  1.1199E-006
 564.00  1.1319E-006
 564.50  1.1063E-006
 565.00  1.0945E-006
 565.50  1.0605E-006
 566.00  1.0181E-006
 566.50  9.8612E-007
 567.00  9.7365E-007
 567.50  9.5789E-007
 568.00  9.3557E-007
 568.50  9.0100E-007
 569.00  8.8349E-007
 569.50  8.8899E-007
 570.00  8.7959E-007
 570.50  8.6854E-007
 571.00  9.0688E-007
 571.50  9.2506E-007
 572.00  8.9227E-007
 572.50  8.9319E-007
 573.00  9.1121E-007
 573.50  9.0818E-007
 574.00  9.4625E-007
 574.50  9.7564E-007
 575.00  9.8290E-007
 575.50  9.3999E-007
 576.00  9.1052E-007
 576.50  8.8462E-007
 577.00  8.6366E-007
 577.50  8.3968E-007
 578.00  8.0835E-007
 578.50  7.7590E-007
 579.00  7.5454E-007
 579.50  7.4604E-007
 580.00  7.2787E-007
 580.50  7.3345E-007
 581.00  7.7223E-007
 581.50  7.4698E-007
 582.00  7.6904E-007
 582.50  7.6302E-007
 583.00  7.6630E-007
 583.50  8.0604E-007
 584.00  7.8309E-007
 584.50  6.9550E-007
 585.00  6.3408E-007
 585.50  5.8975E-007
 586.00  5.2612E-007
 586.50  5.9339E-007
 587.00  6.5308E-007
 587.50  6.6756E-007
 588.00  6.1256E-007
 588.50  5.4577E-007
 589.00  4.9198E-007
 589.50  4.6474E-007
 590.00  4.1902E-007
 590.50  3.8008E-007
 591.00  4.0550E-007
 591.50  4.5218E-007
 592.00  4.8655E-007
 592.50  6.3555E-007
 593.00  6.1307E-007
 593.50  5.7477E-007
 594.00  5.3892E-007
 594.50  4.9038E-007
 595.00  4.7347E-007
 595.50  5.5064E-007
 596.00  5.6439E-007
 596.50  5.5302E-007
 597.00  5.1874E-007
 597.50  4.5859E-007
 598.00  3.8233E-007
 598.50  3.0410E-007
 599.00  2.3865E-007
 599.50  2.1553E-007
 600.00  2.0228E-007
 600.50  2.6214E-007
 601.00  3.3916E-007
 601.50  3.0655E-007
 602.00  2.8979E-007
 602.50  3.0144E-007
 603.00  2.5663E-007
 603.50  2.9208E-007
 604.00  3.5183E-007
 604.50  3.7875E-007
 605.00  3.6060E-007
 605.50  3.7409E-007
 606.00  3.5558E-007
 606.50  3.4076E-007
 607.00  3.5705E-007
 607.50  3.7449E-007
 608.00  3.7453E-007
 608.50  4.0320E-007
 609.00  4.3088E-007
 609.50  3.9361E-007
 610.00  3.3957E-007
 610.50  2.9527E-007
 611.00  2.8061E-007
 611.50  2.3924E-007
 612.00  2.4295E-007
 612.50  2.2848E-007
 613.00  2.4314E-007
 613.50  2.7756E-007
 614.00  2.9871E-007
 614.50  2.7031E-007
 615.00  2.6446E-007
 615.50  2.5527E-007
 616.00  2.0064E-007
 616.50  2.1462E-007
 617.00  2.6911E-007
 617.50  2.3872E-007
 618.00  1.9481E-007
 618.50  1.5742E-007
 619.00  1.9421E-007
 619.50  2.5154E-007
 620.00  3.7804E-007
 620.50  5.0443E-007
 621.00  5.8299E-007
 621.50  5.8389E-007
 622.00  6.0613E-007
 622.50  6.0999E-007
 623.00  5.9209E-007
 623.50  6.7015E-007
 624.00  6.9875E-007
 624.50  6.3988E-007
 625.00  5.6630E-007
 625.50  5.1193E-007
 626.00  4.4107E-007
 626.50  4.3022E-007
 627.00  4.1610E-007
 627.50  3.9713E-007
 628.00  3.7587E-007
 628.50  3.5660E-007
 629.00  3.4846E-007
 629.50  3.7972E-007
 630.00  3.6459E-007
 630.50  3.6915E-007
 631.00  3.2610E-007
 631.50  3.1307E-007
 632.00  3.0697E-007
 632.50  3.3821E-007
 633.00  3.9163E-007
 633.50  4.8384E-007
 634.00  5.6900E-007
 634.50  6.7454E-007
 635.00  7.9903E-007
 635.50  8.0468E-007
 636.00  7.5581E-007
 636.50  7.3033E-007
 637.00  6.7056E-007
 637.50  6.2867E-007
 638.00  6.1067E-007
 638.50  5.6313E-007
 639.00  4.3017E-007
 639.50  2.8841E-007
 640.00  2.3328E-007
 640.50  2.3957E-007
 641.00  2.4589E-007
 641.50  3.1915E-007
 642.00  3.5242E-007
 642.50  3.3784E-007
 643.00  3.5954E-007
 643.50  4.4693E-007
 644.00  5.0131E-007
 644.50  5.3623E-007
 645.00  5.1461E-007
 645.50  4.4460E-007
 646.00  3.0962E-007
 646.50  1.5773E-007
 647.00  4.9456E-008
 647.50  6.7536E-009
 648.00  0.0000E+000
 648.50  0.0000E+000
 649.00  0.0000E+000
 649.50  0.0000E+000
 650.00  0.0000E+000
 650.50  1.3747E-010
 651.00  9.9122E-009
 651.50  7.2259E-008
 652.00  1.4040E-007
 652.50  1.8164E-007
 653.00  1.7296E-007
 653.50  1.7190E-007
 654.00  1.9890E-007
 654.50  1.8487E-007
 655.00  1.4155E-007
 655.50  1.1878E-007
 656.00  9.9612E-008
 656.50  3.3378E-008
 657.00  0.0000E+000
 657.50  0.0000E+000
 658.00  0.0000E+000
 658.50  0.0000E+000
 659.00  0.0000E+000
 659.50  0.0000E+000
 660.00  0.0000E+000
 660.50  8.6093E-009
 661.00  1.2926E-007
 661.50  7.5583E-008
 662.00  3.9878E-008
 662.50  7.8318E-008
 663.00  6.9564E-008
 663.50  2.7488E-009
 664.00  2.2400E-007
 664.50  3.7755E-007
 665.00  5.4936E-007
 665.50  6.9555E-007
 666.00  6.8849E-007
 666.50  6.6313E-007
 667.00  6.3091E-007
 667.50  5.4487E-007
 668.00  4.7986E-007
 668.50  4.3971E-007
 669.00  4.2736E-007
 669.50  4.5115E-007
 670.00  4.6904E-007
 670.50  4.6484E-007
 671.00  5.3228E-007
 671.50  5.7210E-007
 672.00  5.0397E-007
 672.50  4.7595E-007
 673.00  4.8624E-007
 673.50  4.3295E-007
 674.00  4.1457E-007
 674.50  4.4529E-007
 675.00  3.7724E-007
 675.50  3.0273E-007
 676.00  3.1123E-007
 676.50  2.7110E-007
 677.00  2.3944E-007
 677.50  3.8207E-007
 678.00  5.3034E-007
 678.50  6.3992E-007
 679.00  7.8877E-007
 679.50  8.4289E-007
 680.00  7.9874E-007
 680.50  7.8731E-007
 681.00  8.4010E-007
 681.50  8.7421E-007
 682.00  9.4236E-007
 682.50  1.0248E-006
 683.00  1.0286E-006
 683.50  9.7571E-007
 684.00  9.5935E-007
 684.50  9.2470E-007
 685.00  9.0591E-007
 685.50  8.5637E-007
 686.00  8.4233E-007
 686.50  8.5498E-007
 687.00  7.6931E-007
 687.50  6.4870E-007
 688.00  5.5089E-007
 688.50  4.3755E-007
 689.00  3.3439E-007
 689.50  2.8365E-007
 690.00  2.4866E-007
 690.50  1.6619E-007
 691.00  1.1048E-007
 691.50  1.1067E-007
 692.00  2.4631E-007
 692.50  3.4244E-007
 693.00  3.1760E-007
 693.50  3.3716E-007
 694.00  3.7345E-007
 694.50  4.2372E-007
 695.00  6.3190E-007
 695.50  9.2256E-007
 696.00  1.1333E-006
 696.50  1.2393E-006
 697.00  1.1540E-006
 697.50  9.9219E-007
 698.00  8.6994E-007
 698.50  7.8040E-007
 699.00  7.9953E-007
 699.50  1.0147E-006
 700.00  1.0754E-006
 700.50  1.0554E-006
 701.00  9.9171E-007
 701.50  8.0632E-007
 702.00  6.6054E-007
 702.50  6.1942E-007
 703.00  6.5457E-007
 703.50  6.0213E-007
 704.00  5.4814E-007
 704.50  5.9271E-007
 705.00  6.0918E-007
 705.50  7.0829E-007
 706.00  9.4275E-007
 706.50  1.1146E-006
 707.00  1.2264E-006
 707.50  1.3545E-006
 708.00  1.3521E-006
 708.50  1.4334E-006
 709.00  1.5234E-006
 709.50  1.3814E-006
 710.00  1.2762E-006
 710.50  1.2784E-006
 711.00  1.1925E-006
 711.50  1.1270E-006
 712.00  1.2025E-006
 712.50  1.1553E-006
 713.00  1.0248E-006
 713.50  8.8576E-007
 714.00  9.1462E-007
 714.50  8.6496E-007
 715.00  1.0415E-006
 715.50  7.8420E-007
 716.00  6.4463E-007
 716.50  4.4159E-007
 717.00  3.2990E-007
 717.50  1.8322E-007
 718.00  3.8827E-007
 718.50  5.1469E-007
 719.00  5.8321E-007
 719.50  6.6189E-007
 720.00  7.8414E-007
 720.50  7.5106E-007
 721.00  7.2710E-007
 721.50  7.8142E-007
 722.00  8.5180E-007
 722.50  8.1685E-007
 723.00  9.7911E-007
 723.50  1.0676E-006
 724.00  1.0590E-006
 724.50  1.1357E-006
 725.00  1.3307E-006
 725.50  1.3407E-006
 726.00  1.2497E-006
 726.50  1.2173E-006
 727.00  1.1193E-006
 727.50  1.0210E-006
 728.00  1.1107E-006
 728.50  1.2588E-006
 729.00  1.3656E-006
 729.50  1.4920E-006
 730.00  1.5847E-006
 730.50  1.6695E-006
 731.00  1.7577E-006
 731.50  1.6947E-006
 732.00  1.5477E-006
 732.50  1.4103E-006
 733.00  1.3378E-006
 733.50  1.2783E-006
 734.00  1.1912E-006
 734.50  1.1132E-006
 735.00  1.0865E-006
 735.50  1.0325E-006
 736.00  9.6351E-007
 736.50  9.8743E-007
 737.00  1.0251E-006
 737.50  9.0051E-007
 738.00  7.8033E-007
 738.50  7.6947E-007
 739.00  7.6389E-007
 739.50  9.0558E-007
 740.00  1.0764E-006
 740.50  1.1974E-006
 741.00  1.3085E-006
 741.50  1.4219E-006
 742.00  1.4527E-006
 742.50  1.5344E-006
 743.00  1.6510E-006
 743.50  1.7651E-006
 744.00  1.9196E-006
 744.50  2.0435E-006
 745.00  2.0780E-006
 745.50  2.1599E-006
 746.00  2.2287E-006
 746.50  2.1336E-006
 747.00  2.1133E-006
 747.50  2.1398E-006
 748.00  2.0675E-006
 748.50  2.0258E-006
 749.00  2.1332E-006
 749.50  2.1687E-006
 750.00  2.1758E-006
 750.50  2.1508E-006
 751.00  2.1062E-006
 751.50  2.0361E-006
 752.00  1.9821E-006
 752.50  2.0313E-006
 753.00  2.1575E-006
 753.50  2.2897E-006
 754.00  2.3474E-006
 754.50  2.2446E-006
 755.00  2.0897E-006
 755.50  2.0377E-006
 756.00  2.0426E-006
 756.50  1.9750E-006
 757.00  1.8897E-006
 757.50  1.7852E-006
 758.00  1.5778E-006
 758.50  1.5049E-006
 759.00  1.7609E-006
 759.50  2.1216E-006
 760.00  2.4518E-006
 760.50  2.6918E-006
 761.00  2.7615E-006
 761.50  2.6983E-006
 762.00  2.5547E-006
 762.50  2.3137E-006
 763.00  2.0314E-006
 763.50  1.8297E-006
 764.00  1.6929E-006
 764.50  1.4715E-006
 765.00  1.2384E-006
 765.50  1.1952E-006
 766.00  1.2536E-006
 766.50  1.3288E-006
 767.00  1.3297E-006
 767.50  1.4356E-006
 768.00  1.6329E-006
 768.50  1.6426E-006
 769.00  1.8630E-006
 769.50  2.4816E-006
 770.00  2.5653E-006
 770.50  2.2782E-006
 771.00  2.1634E-006
 771.50  1.8993E-006
 772.00  1.3592E-006
 772.50  1.4032E-006
 773.00  1.4802E-006
 773.50  1.3598E-006
 774.00  1.4396E-006
 774.50  1.5763E-006
 775.00  1.7537E-006
 775.50  1.7816E-006
 776.00  1.6968E-006
 776.50  1.4673E-006
 777.00  1.2106E-006
 777.50  9.5790E-007
 778.00  8.8541E-007
 778.50  8.9897E-007
 779.00  9.2219E-007
 779.50  1.0014E-006
 780.00  9.9113E-007
 780.50  8.7576E-007
 781.00  7.7424E-007
 781.50  5.4239E-007
 782.00  3.6416E-007
 782.50  2.4953E-007
 783.00  2.8783E-007
 783.50  1.8151E-007
 784.00  2.1979E-007
 784.50  4.1380E-007
 785.00  7.8097E-007
 785.50  9.6616E-007
 786.00  1.2220E-006
 786.50  1.4604E-006
 787.00  1.5556E-006
 787.50  1.5389E-006
 788.00  1.7133E-006
 788.50  1.9416E-006
 789.00  2.0356E-006
 789.50  2.0401E-006
 790.00  1.9662E-006
 790.50  1.9988E-006
 791.00  1.9855E-006
 791.50  1.8310E-006
 792.00  1.8743E-006
 792.50  2.0215E-006
 793.00  1.9744E-006
 793.50  1.9658E-006
 794.00  2.0191E-006
 794.50  1.9848E-006
 795.00  1.9265E-006
 795.50  1.8990E-006
 796.00  1.9044E-006
 796.50  1.9168E-006
 797.00  1.9405E-006
 797.50  1.8113E-006
 798.00  1.6442E-006
 798.50  1.5991E-006
 799.00  1.6633E-006
 799.50  1.7162E-006
 800.00  1.8874E-006
 800.50  2.1414E-006
 801.00  2.3921E-006
 801.50  2.4383E-006
 802.00  2.4505E-006
 802.50  2.5276E-006
 803.00  2.6378E-006
 803.50  2.5132E-006
 804.00  2.5152E-006
 804.50  2.3350E-006
 805.00  2.0325E-006
 805.50  1.6266E-006
 806.00  1.4224E-006
 806.50  1.2867E-006
 807.00  1.2013E-006
 807.50  1.0392E-006
 808.00  8.9453E-007
 808.50  7.7169E-007
 809.00  6.8894E-007
 809.50  7.3546E-007
 810.00  9.5336E-007
 810.50  1.1380E-006
 811.00  1.1347E-006
 811.50  1.2492E-006
 812.00  1.4216E-006
 812.50  1.5340E-006
 813.00  1.6621E-006
 813.50  2.0016E-006
 814.00  2.0507E-006
 814.50  2.2266E-006
 815.00  2.5306E-006
 815.50  2.6509E-006
 816.00  2.8326E-006
 816.50  3.0160E-006
 817.00  3.0032E-006
 817.50  3.0092E-006
 818.00  2.8596E-006
 818.50  2.7383E-006
 819.00  2.5427E-006
 819.50  2.2967E-006
 820.00  1.9506E-006
 820.50  1.7223E-006
 821.00  1.4015E-006
 821.50  1.1420E-006
 822.00  9.5376E-007
 822.50  7.9254E-007
 823.00  7.6725E-007
 823.50  7.7982E-007
 824.00  9.6884E-007
 824.50  1.1098E-006
 825.00  1.3039E-006
 825.50  1.5273E-006
 826.00  1.6481E-006
 826.50  1.8350E-006
 827.00  2.0640E-006
 827.50  1.9684E-006
 828.00  1.7591E-006
 828.50  1.7389E-006
 829.00  1.7322E-006
 829.50  1.9566E-006
 830.00  2.3345E-006
 830.50  2.7120E-006
 831.00  2.7275E-006
 831.50  2.4093E-006
 832.00  1.9050E-006
 832.50  1.7529E-006
 833.00  1.6858E-006
 833.50  1.6895E-006
 834.00  1.7842E-006
 834.50  1.8401E-006
 835.00  1.9991E-006
 835.50  2.2076E-006
 836.00  2.0653E-006
 836.50  1.9675E-006
 837.00  2.1180E-006
 837.50  2.0829E-006
 838.00  2.1226E-006
 838.50  2.4846E-006
 839.00  2.6769E-006
 839.50  2.6108E-006
 840.00  2.5383E-006
 840.50  2.3999E-006
 841.00  2.2634E-006
 841.50  2.2220E-006
 842.00  2.1234E-006
 842.50  1.7234E-006
 843.00  1.4064E-006
 843.50  1.1003E-006
 844.00  9.7554E-007
 844.50  9.5366E-007
 845.00  1.2025E-006
 845.50  1.4095E-006
 846.00  1.5765E-006
 846.50  1.7030E-006
 847.00  1.8861E-006
 847.50  1.7917E-006
 848.00  1.4099E-006
 848.50  1.2431E-006
 849.00  1.0035E-006
 849.50  6.9951E-007
 850.00  9.3980E-007
 850.50  1.2105E-006
 851.00  1.1855E-006
 851.50  1.1213E-006
 852.00  1.1254E-006
 852.50  9.8378E-007
 853.00  7.9576E-007
 853.50  6.7742E-007
 854.00  5.0045E-007
 854.50  7.0179E-008
 855.00  0.0000E+000
 855.50  0.0000E+000
 856.00  5.7791E-008
 856.50  3.4441E-007
 857.00  3.9017E-007
 857.50  4.5296E-007
 858.00  7.4149E-007
 858.50  8.2768E-007
 859.00  9.4712E-007
 859.50  1.3307E-006
 860.00  1.6061E-006
 860.50  1.6902E-006
 861.00  1.5180E-006
 861.50  1.1893E-006
 862.00  1.0043E-006
 862.50  9.5790E-007
 863.00  1.2000E-006
 863.50  1.0671E-006
 864.00  1.3847E-006
 864.50  2.1426E-006
 865.00  2.0794E-006
 865.50  1.4537E-006
 866.00  1.7210E-006
 866.50  1.6524E-006
 867.00  1.0681E-006
 867.50  8.3317E-007
 868.00  7.9398E-007
 868.50  6.6093E-007
 869.00  3.6783E-007
 869.50  3.3294E-007
 870.00  6.7530E-007
 870.50  8.8668E-007
 871.00  8.7770E-007
 871.50  6.6634E-007
 872.00  2.3436E-007
 872.50  9.4340E-009
 873.00  0.0000E+000
 873.50  0.0000E+000
 874.00  0.0000E+000
 874.50  0.0000E+000
 875.00  0.0000E+000
 875.50  0.0000E+000
 876.00  0.0000E+000
 876.50  0.0000E+000
 877.00  0.0000E+000
 877.50  0.0000E+000
 878.00  0.0000E+000
 878.50  3.1416E-009
 879.00  3.6681E-008
 879.50  0.0000E+000
 880.00  0.0000E+000
 880.50  0.0000E+000
 881.00  0.0000E+000
 881.50  5.7626E-008
 882.00  4.9338E-007
 882.50  1.5968E-006
 883.00  2.2832E-006
 883.50  1.9556E-006
 884.00  1.7910E-006
 884.50  1.5965E-006
 885.00  8.8660E-007
 885.50  5.8440E-007
 886.00  3.6197E-007
 886.50  6.7120E-008
 887.00  0.0000E+000
 887.50  0.0000E+000
 888.00  0.0000E+000
 888.50  0.0000E+000
 889.00  0.0000E+000
 889.50  0.0000E+000
 890.00  1.9676E-008
 890.50  2.4750E-010
 891.00  1.4270E-008
 891.50  8.7225E-008
 892.00  0.0000E+000
 892.50  7.0496E-008
 893.00  4.5811E-007
 893.50  8.3731E-007
 894.00  1.3525E-006
 894.50  2.0849E-006
 895.00  2.5937E-006
 895.50  2.8552E-006
 896.00  2.9720E-006
 896.50  2.6122E-006
 897.00  1.9714E-006
 897.50  1.5704E-006
 898.00  1.7061E-006
 898.50  2.4953E-006
 899.00  2.9057E-006
 899.50  3.2193E-006
 900.00  3.6147E-006
 900.50  3.6764E-006
 901.00  3.1929E-006
 901.50  3.7046E-006
 902.00  3.7188E-006
 902.50  3.1312E-006
 903.00  2.3468E-006
 903.50  1.5562E-006
 904.00  1.1597E-006
 904.50  1.2522E-006
 905.00  1.2877E-006
 905.50  1.7175E-006
 906.00  2.1769E-006
 906.50  2.1707E-006
 907.00  2.0729E-006
 907.50  1.7397E-006
 908.00  1.1189E-006
 908.50  5.9343E-007
 909.00  2.2201E-007
 909.50  8.0457E-008
 910.00  3.5532E-007
 910.50  9.2602E-007
 911.00  1.5018E-006
 911.50  1.8495E-006
 912.00  2.0935E-006
 912.50  2.0447E-006
 913.00  1.8452E-006
 913.50  1.6577E-006
 914.00  1.6089E-006
 914.50  1.6525E-006
 915.00  1.6639E-006
 915.50  1.8151E-006
 916.00  1.5888E-006
 916.50  1.5266E-006
 917.00  1.5967E-006
 917.50  1.8179E-006
 918.00  1.1774E-006
 918.50  1.4210E-006
 919.00  1.6549E-006
 919.50  1.8257E-006
 920.00  2.1534E-006
 920.50  2.8644E-006
 921.00  3.1267E-006
 921.50  3.1354E-006
 922.00  3.0057E-006
 922.50  2.8675E-006
 923.00  2.8354E-006
 923.50  2.7806E-006
 924.00  2.5104E-006
 924.50  2.0835E-006
 925.00  1.5564E-006
 925.50  8.5937E-007
 926.00  2.7980E-007
 926.50  5.4883E-008
 927.00  2.7492E-007
 927.50  2.3072E-007
 928.00  3.5674E-007
 928.50  8.6031E-008
 929.00  0.0000E+000
 929.50  0.0000E+000
 930.00  0.0000E+000
 930.50  0.0000E+000
 931.00  0.0000E+000
 931.50  0.0000E+000
 932.00  0.0000E+000
 932.50  1.6480E-008
 933.00  3.2968E-007
 933.50  9.2859E-007
 934.00  1.2465E-006
 934.50  1.3426E-006
 935.00  4.6063E-007
 935.50  0.0000E+000
 936.00  0.0000E+000
 936.50  0.0000E+000
 937.00  0.0000E+000
 937.50  0.0000E+000
 938.00  0.0000E+000
 938.50  0.0000E+000
 939.00  0.0000E+000
 939.50  4.9848E-007
 940.00  1.3082E-006
 940.50  1.5019E-006
 941.00  1.3651E-006
 941.50  1.0408E-006
 942.00  5.6100E-007
 942.50  1.1742E-007
 943.00  0.0000E+000
 943.50  0.0000E+000
 944.00  4.4723E-007
 944.50  1.4003E-006
 945.00  2.2744E-006
 945.50  3.3750E-006
 946.00  4.3973E-006
 946.50  4.2374E-006
 947.00  4.0923E-006
 947.50  4.3218E-006
 948.00  3.8460E-006
 948.50  3.1506E-006
 949.00  2.0411E-006
 949.50  4.1481E-007
 950.00  0.0000E+000
 950.50  0.0000E+000
 951.00  0.0000E+000
 951.50  2.7498E-008
 952.00  7.0291E-008
 952.50  0.0000E+000
 953.00  0.0000E+000
 953.50  1.7644E-007
 954.00  1.1796E-006
 954.50  2.6876E-006
 955.00  3.9601E-006
 955.50  5.4746E-006
 956.00  6.6302E-006
 956.50  6.4315E-006
 957.00  5.7437E-006
 957.50  5.0400E-006
 958.00  3.5693E-006
 958.50  3.0400E-006
 959.00  1.9858E-006
 959.50  1.3007E-006
 960.00  8.0595E-007
 960.50  5.7502E-007
 961.00  8.6643E-008
 961.50  5.5060E-007
 962.00  9.7751E-007
 962.50  2.1606E-007
 963.00  6.4475E-009
 963.50  0.0000E+000
 964.00  0.0000E+000
 964.50  0.0000E+000
 965.00  0.0000E+000
 965.50  0.0000E+000
 966.00  0.0000E+000
 966.50  0.0000E+000
 967.00  0.0000E+000
 967.50  5.8320E-008
 968.00  2.0260E-007
 968.50  2.5614E-007
 969.00  1.3942E-006
 969.50  2.8689E-006
 970.00  3.7038E-006
 970.50  4.3006E-006
 971.00  5.4568E-006
 971.50  5.8929E-006
 972.00  6.1557E-006
 972.50  7.2533E-006
 973.00  9.9746E-006
 973.50  1.2017E-005
 974.00  1.3427E-005
 974.50  1.5391E-005
 975.00  1.5662E-005
 975.50  1.3156E-005
 976.00  1.1341E-005
 976.50  1.0306E-005
 977.00  8.8586E-006
 977.50  7.9308E-006
 978.00  7.4456E-006
 978.50  6.7520E-006
 979.00  5.6328E-006
 979.50  4.5533E-006
 980.00  4.1196E-006
 980.50  2.3880E-006
 981.00  2.0239E-006
 981.50  3.2409E-006
 982.00  3.7747E-006
 982.50  2.4310E-006
 983.00  3.8498E-006
 983.50  4.9022E-006
 984.00  5.8715E-006
 984.50  7.2335E-006
 985.00  8.9264E-006
 985.50  8.9053E-006
 986.00  8.4152E-006
 986.50  5.9686E-006
 987.00  2.2861E-006
 987.50  0.0000E+000
 988.00  0.0000E+000
 988.50  0.0000E+000
 989.00  0.0000E+000
 989.50  0.0000E+000
 990.00  0.0000E+000
 990.50  5.3758E-007
 991.00  2.6224E-006
 991.50  4.2799E-006
 992.00  4.7626E-006
 992.50  6.5237E-006
 993.00  7.7026E-006
 993.50  9.1304E-006
 994.00  1.3020E-005
 994.50  1.9674E-005
 995.00  1.7666E-005
 995.50  1.4285E-005
 996.00  1.3324E-005
 996.50  1.2526E-005
 997.00  7.1922E-006
 997.50  1.2128E-005
 998.00  1.5254E-005
 998.50  1.4382E-005
 999.00  1.0548E-005
 999.50  7.6460E-006
1000.00  2.2494E-006
1000.50  9.4825E-008
1001.00  0.0000E+000
1001.50  0.0000E+000
1002.00  0.0000E+000
1002.50  0.0000E+000
1003.00  0.0000E+000
1003.50  0.0000E+000
1004.00  0.0000E+000
1004.50  0.0000E+000
1005.00  0.0000E+000
1005.50  0.0000E+000
1006.00  0.0000E+000
1006.50  0.0000E+000
1007.00  0.0000E+000
1007.50  0.0000E+000
1008.00  0.0000E+000
1008.50  0.0000E+000
1009.00  0.0000E+000
1009.50  0.0000E+000
1010.00  0.0000E+000
1010.50  0.0000E+000
1011.00  0.0000E+000
1011.50  0.0000E+000
1012.00  0.0000E+000
1012.50  0.0000E+000
1013.00  0.0000E+000
1013.50  0.0000E+000
1014.00  0.0000E+000
1014.50  0.0000E+000
1015.00  0.0000E+000
1015.50  0.0000E+000
1016.00  0.0000E+000
1016.50  0.0000E+000
1017.00  0.0000E+000
1017.50  0.0000E+000
1018.00  0.0000E+000
1018.50  0.0000E+000
1019.00  0.0000E+000
1019.50  0.0000E+000
1020.00  0.0000E+000
1020.50  0.0000E+000
1021.00  0.0000E+000
1021.50  0.0000E+000
1022.00  0.0000E+000
1022.50  0.0000E+000
1023.00  0.0000E+000
1023.50  0.0000E+000
1024.00  0.0000E+000
1024.50  0.0000E+000
1025.00  0.0000E+000
1025.50  0.0000E+000
1026.00  0.0000E+000
1026.50  0.0000E+000
1027.00  0.0000E+000
1027.50  0.0000E+000
1028.00  0.0000E+000
1028.50  0.0000E+000
1029.00  0.0000E+000
1029.50  0.0000E+000
1030.00  0.0000E+000
1030.50  0.0000E+000
1031.00  0.0000E+000
1031.50  0.0000E+000
1032.00  0.0000E+000
1032.50  0.0000E+000
1033.00  0.0000E+000
1033.50  0.0000E+000
1034.00  0.0000E+000
1034.50  0.0000E+000
1035.00  0.0000E+000
1035.50  0.0000E+000
1036.00  0.0000E+000
1036.50  0.0000E+000
1037.00  0.0000E+000
1037.50  0.0000E+000
1038.00  0.0000E+000
1038.50  0.0000E+000
1039.00  0.0000E+000
1039.50  0.0000E+000
1040.00  0.0000E+000
1040.50  0.0000E+000
1041.00  0.0000E+000
1041.50  0.0000E+000
1042.00  0.0000E+000
1042.50  0.0000E+000
1043.00  0.0000E+000
1043.50  0.0000E+000
1044.00  0.0000E+000
1044.50  0.0000E+000
1045.00  0.0000E+000
1045.50  0.0000E+000
1046.00  0.0000E+000
1046.50  0.0000E+000
1047.00  0.0000E+000
1047.50  0.0000E+000
1048.00  0.0000E+000
1048.50  0.0000E+000
1049.00  0.0000E+000
1049.50  0.0000E+000
1050.00  0.0000E+000
1050.50  0.0000E+000
1051.00  0.0000E+000
1051.50  0.0000E+000
1052.00  0.0000E+000
1052.50  0.0000E+000
1053.00  0.0000E+000
1053.50  0.0000E+000
1054.00  0.0000E+000
1054.50  0.0000E+000
1055.00  0.0000E+000
1055.50  0.0000E+000
1056.00  0.0000E+000
1056.50  0.0000E+000
1057.00  0.0000E+000
1057.50  0.0000E+000
1058.00  0.0000E+000
1058.50  0.0000E+000
1059.00  0.0000E+000
1059.50  0.0000E+000
1060.00  0.0000E+000
1060.50  0.0000E+000
1061.00  0.0000E+000
1061.50  0.0000E+000
1062.00  0.0000E+000
1062.50  0.0000E+000
1063.00  0.0000E+000
1063.50  0.0000E+000
1064.00  0.0000E+000
1064.50  0.0000E+000
1065.00  0.0000E+000
1065.50  0.0000E+000
1066.00  0.0000E+000
1066.50  0.0000E+000
1067.00  0.0000E+000
1067.50  0.0000E+000
1068.00  0.0000E+000
1068.50  0.0000E+000
1069.00  0.0000E+000
1069.50  0.0000E+000
1070.00  0.0000E+000
1070.50  0.0000E+000
1071.00  0.0000E+000
1071.50  0.0000E+000
1072.00  0.0000E+000
1072.50  0.0000E+000
1073.00  0.0000E+000
1073.50  0.0000E+000
1074.00  0.0000E+000
1074.50  0.0000E+000
1075.00  0.0000E+000
1075.50  0.0000E+000
1076.00  0.0000E+000
1076.50  0.0000E+000
1077.00  0.0000E+000
1077.50  0.0000E+000
1078.00  0.0000E+000
1078.50  0.0000E+000
1079.00  0.0000E+000
1079.50  0.0000E+000
1080.00  0.0000E+000
1080.50  0.0000E+000
1081.00  0.0000E+000
1081.50  0.0000E+000
1082.00  0.0000E+000
1082.50  0.0000E+000
1083.00  0.0000E+000
1083.50  0.0000E+000
1084.00  0.0000E+000
1084.50  0.0000E+000
1085.00  0.0000E+000
1085.50  0.0000E+000
1086.00  0.0000E+000
1086.50  0.0000E+000
1087.00  0.0000E+000
1087.50  0.0000E+000
1088.00  0.0000E+000
1088.50  0.0000E+000
1089.00  0.0000E+000
1089.50  0.0000E+000
1090.00  0.0000E+000
1090.50  0.0000E+000
1091.00  0.0000E+000
1091.50  0.0000E+000
1092.00  0.0000E+000
1092.50  0.0000E+000
1093.00  0.0000E+000
1093.50  0.0000E+000
1094.00  0.0000E+000
1094.50  0.0000E+000
1095.00  0.0000E+000
1095.50  0.0000E+000
1096.00  0.0000E+000
1096.50  0.0000E+000
1097.00  0.0000E+000
1097.50  0.0000E+000
1098.00  0.0000E+000
1098.50  0.0000E+000
1099.00  0.0000E+000
1099.50  0.0000E+000
1100.00  0.0000E+000
1100.50  0.0000E+000
1101.00  0.0000E+000
1101.50  0.0000E+000
1102.00  0.0000E+000
1102.50  0.0000E+000
1103.00  0.0000E+000
1103.50  0.0000E+000
1104.00  0.0000E+000
1104.50  0.0000E+000
1105.00  0.0000E+000
1105.50  0.0000E+000
1106.00  0.0000E+000
1106.50  0.0000E+000
1107.00  0.0000E+000
1107.50  0.0000E+000
1108.00  0.0000E+000
1108.50  0.0000E+000
1109.00  0.0000E+000
1109.50  0.0000E+000
1110.00  0.0000E+000
1110.50  0.0000E+000
1111.00  0.0000E+000
1111.50  0.0000E+000
1112.00  0.0000E+000
1112.50  0.0000E+000
1113.00  0.0000E+000
1113.50  0.0000E+000
1114.00  0.0000E+000
1114.50  0.0000E+000
1115.00  0.0000E+000
1115.50  0.0000E+000
1116.00  0.0000E+000
1116.50  0.0000E+000
1117.00  0.0000E+000
1117.50  0.0000E+000
1118.00  0.0000E+000
1118.50  0.0000E+000
1119.00  0.0000E+000
1119.50  0.0000E+000
1120.00  0.0000E+000
1120.50  0.0000E+000
1121.00  0.0000E+000
1121.50  0.0000E+000
1122.00  0.0000E+000
1122.50  0.0000E+000
1123.00  0.0000E+000
1123.50  0.0000E+000
1124.00  0.0000E+000
1124.50  0.0000E+000
1125.00  0.0000E+000
1125.50  0.0000E+000
1126.00  0.0000E+000
1126.50  0.0000E+000
1127.00  0.0000E+000
1127.50  0.0000E+000
: 6
