" File: 160128_ReferenceSpectra\8.IRR
" RAD->  Wave:366.44nm  Pix:434  Val:  0.000  Time:100ms  Avg:5  Sm:1  Sg:1  Tc:off  SNAP  Xt:1  Ch:1  Xtrig wnmcal >RAD-IS6.CAL
 180.00  0.0000E+000
 180.50  0.0000E+000
 181.00  0.0000E+000
 181.50  0.0000E+000
 182.00  0.0000E+000
 182.50  0.0000E+000
 183.00  0.0000E+000
 183.50  0.0000E+000
 184.00  0.0000E+000
 184.50  0.0000E+000
 185.00  0.0000E+000
 185.50  0.0000E+000
 186.00  0.0000E+000
 186.50  0.0000E+000
 187.00  0.0000E+000
 187.50  0.0000E+000
 188.00  0.0000E+000
 188.50  0.0000E+000
 189.00  0.0000E+000
 189.50  0.0000E+000
 190.00  0.0000E+000
 190.50  0.0000E+000
 191.00  0.0000E+000
 191.50  0.0000E+000
 192.00  0.0000E+000
 192.50  0.0000E+000
 193.00  0.0000E+000
 193.50  0.0000E+000
 194.00  0.0000E+000
 194.50  0.0000E+000
 195.00  0.0000E+000
 195.50  0.0000E+000
 196.00  0.0000E+000
 196.50  0.0000E+000
 197.00  0.0000E+000
 197.50  0.0000E+000
 198.00  0.0000E+000
 198.50  0.0000E+000
 199.00  0.0000E+000
 199.50  0.0000E+000
 200.00  0.0000E+000
 200.50  0.0000E+000
 201.00  0.0000E+000
 201.50  0.0000E+000
 202.00  0.0000E+000
 202.50  0.0000E+000
 203.00  0.0000E+000
 203.50  0.0000E+000
 204.00  0.0000E+000
 204.50  0.0000E+000
 205.00  0.0000E+000
 205.50  0.0000E+000
 206.00  0.0000E+000
 206.50  0.0000E+000
 207.00  0.0000E+000
 207.50  0.0000E+000
 208.00  0.0000E+000
 208.50  0.0000E+000
 209.00  0.0000E+000
 209.50  0.0000E+000
 210.00  0.0000E+000
 210.50  0.0000E+000
 211.00  0.0000E+000
 211.50  0.0000E+000
 212.00  0.0000E+000
 212.50  0.0000E+000
 213.00  0.0000E+000
 213.50  0.0000E+000
 214.00  0.0000E+000
 214.50  0.0000E+000
 215.00  0.0000E+000
 215.50  0.0000E+000
 216.00  0.0000E+000
 216.50  0.0000E+000
 217.00  0.0000E+000
 217.50  0.0000E+000
 218.00  0.0000E+000
 218.50  0.0000E+000
 219.00  0.0000E+000
 219.50  0.0000E+000
 220.00  0.0000E+000
 220.50  0.0000E+000
 221.00  0.0000E+000
 221.50  0.0000E+000
 222.00  0.0000E+000
 222.50  0.0000E+000
 223.00  0.0000E+000
 223.50  0.0000E+000
 224.00  0.0000E+000
 224.50  0.0000E+000
 225.00  0.0000E+000
 225.50  0.0000E+000
 226.00  0.0000E+000
 226.50  0.0000E+000
 227.00  0.0000E+000
 227.50  0.0000E+000
 228.00  0.0000E+000
 228.50  0.0000E+000
 229.00  0.0000E+000
 229.50  0.0000E+000
 230.00  0.0000E+000
 230.50  0.0000E+000
 231.00  0.0000E+000
 231.50  0.0000E+000
 232.00  0.0000E+000
 232.50  0.0000E+000
 233.00  0.0000E+000
 233.50  0.0000E+000
 234.00  0.0000E+000
 234.50  0.0000E+000
 235.00  0.0000E+000
 235.50  0.0000E+000
 236.00  0.0000E+000
 236.50  0.0000E+000
 237.00  0.0000E+000
 237.50  0.0000E+000
 238.00  0.0000E+000
 238.50  0.0000E+000
 239.00  0.0000E+000
 239.50  0.0000E+000
 240.00  0.0000E+000
 240.50  0.0000E+000
 241.00  0.0000E+000
 241.50  0.0000E+000
 242.00  0.0000E+000
 242.50  0.0000E+000
 243.00  0.0000E+000
 243.50  0.0000E+000
 244.00  0.0000E+000
 244.50  0.0000E+000
 245.00  0.0000E+000
 245.50  0.0000E+000
 246.00  0.0000E+000
 246.50  0.0000E+000
 247.00  0.0000E+000
 247.50  0.0000E+000
 248.00  0.0000E+000
 248.50  0.0000E+000
 249.00  0.0000E+000
 249.50  0.0000E+000
 250.00  0.0000E+000
 250.50  0.0000E+000
 251.00  0.0000E+000
 251.50  0.0000E+000
 252.00  0.0000E+000
 252.50  0.0000E+000
 253.00  0.0000E+000
 253.50  0.0000E+000
 254.00  0.0000E+000
 254.50  0.0000E+000
 255.00  0.0000E+000
 255.50  0.0000E+000
 256.00  0.0000E+000
 256.50  0.0000E+000
 257.00  0.0000E+000
 257.50  0.0000E+000
 258.00  0.0000E+000
 258.50  0.0000E+000
 259.00  0.0000E+000
 259.50  0.0000E+000
 260.00  0.0000E+000
 260.50  0.0000E+000
 261.00  0.0000E+000
 261.50  0.0000E+000
 262.00  0.0000E+000
 262.50  0.0000E+000
 263.00  0.0000E+000
 263.50  0.0000E+000
 264.00  0.0000E+000
 264.50  0.0000E+000
 265.00  0.0000E+000
 265.50  0.0000E+000
 266.00  0.0000E+000
 266.50  0.0000E+000
 267.00  0.0000E+000
 267.50  0.0000E+000
 268.00  0.0000E+000
 268.50  0.0000E+000
 269.00  0.0000E+000
 269.50  0.0000E+000
 270.00  0.0000E+000
 270.50  0.0000E+000
 271.00  0.0000E+000
 271.50  0.0000E+000
 272.00  0.0000E+000
 272.50  0.0000E+000
 273.00  0.0000E+000
 273.50  0.0000E+000
 274.00  0.0000E+000
 274.50  0.0000E+000
 275.00  0.0000E+000
 275.50  0.0000E+000
 276.00  0.0000E+000
 276.50  0.0000E+000
 277.00  0.0000E+000
 277.50  0.0000E+000
 278.00  0.0000E+000
 278.50  0.0000E+000
 279.00  0.0000E+000
 279.50  0.0000E+000
 280.00  0.0000E+000
 280.50  0.0000E+000
 281.00  0.0000E+000
 281.50  0.0000E+000
 282.00  0.0000E+000
 282.50  0.0000E+000
 283.00  0.0000E+000
 283.50  0.0000E+000
 284.00  0.0000E+000
 284.50  0.0000E+000
 285.00  0.0000E+000
 285.50  0.0000E+000
 286.00  0.0000E+000
 286.50  0.0000E+000
 287.00  0.0000E+000
 287.50  0.0000E+000
 288.00  0.0000E+000
 288.50  0.0000E+000
 289.00  0.0000E+000
 289.50  0.0000E+000
 290.00  0.0000E+000
 290.50  0.0000E+000
 291.00  0.0000E+000
 291.50  0.0000E+000
 292.00  0.0000E+000
 292.50  0.0000E+000
 293.00  0.0000E+000
 293.50  0.0000E+000
 294.00  0.0000E+000
 294.50  0.0000E+000
 295.00  0.0000E+000
 295.50  0.0000E+000
 296.00  0.0000E+000
 296.50  0.0000E+000
 297.00  0.0000E+000
 297.50  0.0000E+000
 298.00  0.0000E+000
 298.50  0.0000E+000
 299.00  0.0000E+000
 299.50  0.0000E+000
 300.00  0.0000E+000
 300.50  0.0000E+000
 301.00  0.0000E+000
 301.50  0.0000E+000
 302.00  0.0000E+000
 302.50  0.0000E+000
 303.00  0.0000E+000
 303.50  0.0000E+000
 304.00  0.0000E+000
 304.50  0.0000E+000
 305.00  0.0000E+000
 305.50  0.0000E+000
 306.00  0.0000E+000
 306.50  0.0000E+000
 307.00  0.0000E+000
 307.50  0.0000E+000
 308.00  0.0000E+000
 308.50  0.0000E+000
 309.00  0.0000E+000
 309.50  0.0000E+000
 310.00  0.0000E+000
 310.50  0.0000E+000
 311.00  0.0000E+000
 311.50  0.0000E+000
 312.00  0.0000E+000
 312.50  0.0000E+000
 313.00  0.0000E+000
 313.50  0.0000E+000
 314.00  0.0000E+000
 314.50  0.0000E+000
 315.00  0.0000E+000
 315.50  0.0000E+000
 316.00  0.0000E+000
 316.50  0.0000E+000
 317.00  0.0000E+000
 317.50  0.0000E+000
 318.00  0.0000E+000
 318.50  0.0000E+000
 319.00  0.0000E+000
 319.50  0.0000E+000
 320.00  0.0000E+000
 320.50  0.0000E+000
 321.00  0.0000E+000
 321.50  0.0000E+000
 322.00  0.0000E+000
 322.50  0.0000E+000
 323.00  0.0000E+000
 323.50  0.0000E+000
 324.00  0.0000E+000
 324.50  0.0000E+000
 325.00  0.0000E+000
 325.50  0.0000E+000
 326.00  0.0000E+000
 326.50  0.0000E+000
 327.00  0.0000E+000
 327.50  0.0000E+000
 328.00  0.0000E+000
 328.50  0.0000E+000
 329.00  0.0000E+000
 329.50  0.0000E+000
 330.00  0.0000E+000
 330.50  0.0000E+000
 331.00  0.0000E+000
 331.50  0.0000E+000
 332.00  0.0000E+000
 332.50  0.0000E+000
 333.00  0.0000E+000
 333.50  0.0000E+000
 334.00  0.0000E+000
 334.50  0.0000E+000
 335.00  0.0000E+000
 335.50  0.0000E+000
 336.00  0.0000E+000
 336.50  0.0000E+000
 337.00  0.0000E+000
 337.50  0.0000E+000
 338.00  0.0000E+000
 338.50  0.0000E+000
 339.00  0.0000E+000
 339.50  0.0000E+000
 340.00  0.0000E+000
 340.50  0.0000E+000
 341.00  0.0000E+000
 341.50  0.0000E+000
 342.00  0.0000E+000
 342.50  0.0000E+000
 343.00  0.0000E+000
 343.50  0.0000E+000
 344.00  0.0000E+000
 344.50  0.0000E+000
 345.00  0.0000E+000
 345.50  0.0000E+000
 346.00  0.0000E+000
 346.50  0.0000E+000
 347.00  0.0000E+000
 347.50  0.0000E+000
 348.00  0.0000E+000
 348.50  0.0000E+000
 349.00  0.0000E+000
 349.50  0.0000E+000
 350.00  0.0000E+000
 350.50  0.0000E+000
 351.00  0.0000E+000
 351.50  0.0000E+000
 352.00  0.0000E+000
 352.50  0.0000E+000
 353.00  0.0000E+000
 353.50  0.0000E+000
 354.00  0.0000E+000
 354.50  0.0000E+000
 355.00  0.0000E+000
 355.50  0.0000E+000
 356.00  0.0000E+000
 356.50  0.0000E+000
 357.00  0.0000E+000
 357.50  0.0000E+000
 358.00  0.0000E+000
 358.50  0.0000E+000
 359.00  0.0000E+000
 359.50  1.8972E-008
 360.00  3.6387E-007
 360.50  7.0459E-007
 361.00  8.9038E-007
 361.50  9.7126E-007
 362.00  8.5429E-007
 362.50  6.7727E-007
 363.00  5.8198E-007
 363.50  5.2463E-007
 364.00  5.9068E-007
 364.50  7.3787E-007
 365.00  8.3958E-007
 365.50  9.3765E-007
 366.00  9.7175E-007
 366.50  1.0495E-006
 367.00  1.0777E-006
 367.50  1.1697E-006
 368.00  1.2272E-006
 368.50  1.2599E-006
 369.00  1.3796E-006
 369.50  1.3894E-006
 370.00  1.4799E-006
 370.50  1.4867E-006
 371.00  1.5042E-006
 371.50  1.5167E-006
 372.00  1.5235E-006
 372.50  1.5066E-006
 373.00  1.4959E-006
 373.50  1.4980E-006
 374.00  1.5259E-006
 374.50  1.4867E-006
 375.00  1.3883E-006
 375.50  1.3644E-006
 376.00  1.1999E-006
 376.50  1.0897E-006
 377.00  1.0241E-006
 377.50  8.9467E-007
 378.00  8.0803E-007
 378.50  7.5411E-007
 379.00  7.4161E-007
 379.50  6.8639E-007
 380.00  6.6518E-007
 380.50  5.7621E-007
 381.00  4.4901E-007
 381.50  3.2626E-007
 382.00  2.0645E-007
 382.50  1.8980E-007
 383.00  1.4083E-007
 383.50  1.9147E-007
 384.00  4.5027E-007
 384.50  6.1626E-007
 385.00  7.4845E-007
 385.50  9.0635E-007
 386.00  9.1911E-007
 386.50  9.1599E-007
 387.00  1.0536E-006
 387.50  1.1464E-006
 388.00  1.3069E-006
 388.50  1.3845E-006
 389.00  1.4152E-006
 389.50  1.4516E-006
 390.00  1.4816E-006
 390.50  1.4278E-006
 391.00  1.3856E-006
 391.50  1.3470E-006
 392.00  1.2826E-006
 392.50  1.3552E-006
 393.00  1.5686E-006
 393.50  1.6452E-006
 394.00  1.7115E-006
 394.50  1.7236E-006
 395.00  1.5141E-006
 395.50  1.3801E-006
 396.00  1.2211E-006
 396.50  1.0891E-006
 397.00  1.1028E-006
 397.50  1.1606E-006
 398.00  1.4987E-006
 398.50  1.7970E-006
 399.00  1.9691E-006
 399.50  2.0683E-006
 400.00  1.8903E-006
 400.50  1.5695E-006
 401.00  1.4966E-006
 401.50  1.4156E-006
 402.00  1.6192E-006
 402.50  1.9098E-006
 403.00  2.2540E-006
 403.50  2.5526E-006
 404.00  2.6743E-006
 404.50  2.8310E-006
 405.00  2.9730E-006
 405.50  3.0338E-006
 406.00  3.2266E-006
 406.50  3.2460E-006
 407.00  3.0926E-006
 407.50  2.7883E-006
 408.00  2.4364E-006
 408.50  2.4077E-006
 409.00  2.5615E-006
 409.50  2.9741E-006
 410.00  3.3566E-006
 410.50  3.4896E-006
 411.00  3.3931E-006
 411.50  3.2604E-006
 412.00  3.1333E-006
 412.50  3.1026E-006
 413.00  3.3221E-006
 413.50  3.4133E-006
 414.00  3.3538E-006
 414.50  3.5307E-006
 415.00  3.6213E-006
 415.50  3.5482E-006
 416.00  3.4266E-006
 416.50  3.1149E-006
 417.00  2.6263E-006
 417.50  2.2434E-006
 418.00  2.2702E-006
 418.50  2.3185E-006
 419.00  2.5479E-006
 419.50  2.8043E-006
 420.00  3.0097E-006
 420.50  3.1533E-006
 421.00  3.1504E-006
 421.50  3.2157E-006
 422.00  3.2133E-006
 422.50  3.1780E-006
 423.00  3.1965E-006
 423.50  3.3664E-006
 424.00  3.4653E-006
 424.50  3.5900E-006
 425.00  3.7269E-006
 425.50  3.7214E-006
 426.00  3.7058E-006
 426.50  3.7778E-006
 427.00  3.8926E-006
 427.50  3.9748E-006
 428.00  3.9997E-006
 428.50  3.8784E-006
 429.00  3.7543E-006
 429.50  3.7063E-006
 430.00  3.8131E-006
 430.50  4.0047E-006
 431.00  4.0491E-006
 431.50  3.9790E-006
 432.00  3.7732E-006
 432.50  3.6432E-006
 433.00  3.5140E-006
 433.50  3.4643E-006
 434.00  3.5651E-006
 434.50  3.7162E-006
 435.00  3.8687E-006
 435.50  4.2718E-006
 436.00  4.6293E-006
 436.50  5.0604E-006
 437.00  5.3439E-006
 437.50  5.4804E-006
 438.00  5.5943E-006
 438.50  5.6938E-006
 439.00  5.6667E-006
 439.50  5.7348E-006
 440.00  5.6218E-006
 440.50  5.3615E-006
 441.00  5.1381E-006
 441.50  5.0900E-006
 442.00  5.0929E-006
 442.50  5.1370E-006
 443.00  5.2029E-006
 443.50  5.2525E-006
 444.00  5.3116E-006
 444.50  5.4115E-006
 445.00  5.5230E-006
 445.50  5.6033E-006
 446.00  5.7079E-006
 446.50  5.7397E-006
 447.00  5.8215E-006
 447.50  5.8533E-006
 448.00  5.8323E-006
 448.50  5.7613E-006
 449.00  5.6841E-006
 449.50  5.7716E-006
 450.00  5.7907E-006
 450.50  5.8424E-006
 451.00  5.9232E-006
 451.50  6.0305E-006
 452.00  6.1437E-006
 452.50  6.3232E-006
 453.00  6.6310E-006
 453.50  6.9588E-006
 454.00  7.1862E-006
 454.50  7.4908E-006
 455.00  7.6737E-006
 455.50  7.8288E-006
 456.00  7.9509E-006
 456.50  7.9937E-006
 457.00  8.0274E-006
 457.50  8.1163E-006
 458.00  8.2788E-006
 458.50  8.5289E-006
 459.00  8.8200E-006
 459.50  9.1117E-006
 460.00  9.4122E-006
 460.50  9.7963E-006
 461.00  1.0235E-005
 461.50  1.0806E-005
 462.00  1.1433E-005
 462.50  1.2027E-005
 463.00  1.2680E-005
 463.50  1.3337E-005
 464.00  1.3997E-005
 464.50  1.4702E-005
 465.00  1.5336E-005
 465.50  1.5962E-005
 466.00  1.6595E-005
 466.50  1.7311E-005
 467.00  1.8071E-005
 467.50  1.9009E-005
 468.00  2.0150E-005
 468.50  2.1335E-005
 469.00  2.2692E-005
 469.50  2.4122E-005
 470.00  2.5578E-005
 470.50  2.7099E-005
 471.00  2.8701E-005
 471.50  3.0457E-005
 472.00  3.2367E-005
 472.50  3.4459E-005
 473.00  3.6723E-005
 473.50  3.9047E-005
 474.00  4.1524E-005
 474.50  4.4036E-005
 475.00  4.6718E-005
 475.50  4.9723E-005
 476.00  5.3087E-005
 476.50  5.6803E-005
 477.00  6.0898E-005
 477.50  6.5247E-005
 478.00  6.9880E-005
 478.50  7.4931E-005
 479.00  8.0150E-005
 479.50  8.5881E-005
 480.00  9.2006E-005
 480.50  9.8540E-005
 481.00  1.0574E-004
 481.50  1.1378E-004
 482.00  1.2251E-004
 482.50  1.3190E-004
 483.00  1.4190E-004
 483.50  1.5252E-004
 484.00  1.6381E-004
 484.50  1.7606E-004
 485.00  1.8935E-004
 485.50  2.0354E-004
 486.00  2.1866E-004
 486.50  2.3476E-004
 487.00  2.5181E-004
 487.50  2.6997E-004
 488.00  2.8928E-004
 488.50  3.0971E-004
 489.00  3.3125E-004
 489.50  3.5383E-004
 490.00  3.7739E-004
 490.50  4.0204E-004
 491.00  4.2770E-004
 491.50  4.5475E-004
 492.00  4.8328E-004
 492.50  5.1327E-004
 493.00  5.4485E-004
 493.50  5.7755E-004
 494.00  6.1112E-004
 494.50  6.4521E-004
 495.00  6.7957E-004
 495.50  7.1443E-004
 496.00  7.4984E-004
 496.50  7.8561E-004
 497.00  8.2154E-004
 497.50  8.5735E-004
 498.00  8.9269E-004
 498.50  9.2737E-004
 499.00  9.6155E-004
 499.50  9.9520E-004
 500.00  1.0280E-003
 500.50  1.0596E-003
 501.00  1.0900E-003
 501.50  1.1187E-003
 502.00  1.1458E-003
 502.50  1.1713E-003
 503.00  1.1946E-003
 503.50  1.2158E-003
 504.00  1.2350E-003
 504.50  1.2518E-003
 505.00  1.2664E-003
 505.50  1.2789E-003
 506.00  1.2891E-003
 506.50  1.2972E-003
 507.00  1.3037E-003
 507.50  1.3085E-003
 508.00  1.3116E-003
 508.50  1.3125E-003
 509.00  1.3110E-003
 509.50  1.3069E-003
 510.00  1.3010E-003
 510.50  1.2932E-003
 511.00  1.2840E-003
 511.50  1.2731E-003
 512.00  1.2605E-003
 512.50  1.2462E-003
 513.00  1.2305E-003
 513.50  1.2134E-003
 514.00  1.1954E-003
 514.50  1.1768E-003
 515.00  1.1579E-003
 515.50  1.1389E-003
 516.00  1.1200E-003
 516.50  1.1009E-003
 517.00  1.0818E-003
 517.50  1.0624E-003
 518.00  1.0429E-003
 518.50  1.0232E-003
 519.00  1.0032E-003
 519.50  9.8291E-004
 520.00  9.6196E-004
 520.50  9.4056E-004
 521.00  9.1901E-004
 521.50  8.9792E-004
 522.00  8.7765E-004
 522.50  8.5832E-004
 523.00  8.3972E-004
 523.50  8.2164E-004
 524.00  8.0399E-004
 524.50  7.8617E-004
 525.00  7.6810E-004
 525.50  7.5013E-004
 526.00  7.3188E-004
 526.50  7.1353E-004
 527.00  6.9568E-004
 527.50  6.7795E-004
 528.00  6.6043E-004
 528.50  6.4328E-004
 529.00  6.2623E-004
 529.50  6.0939E-004
 530.00  5.9320E-004
 530.50  5.7741E-004
 531.00  5.6185E-004
 531.50  5.4644E-004
 532.00  5.3063E-004
 532.50  5.1457E-004
 533.00  4.9884E-004
 533.50  4.8368E-004
 534.00  4.6896E-004
 534.50  4.5459E-004
 535.00  4.4052E-004
 535.50  4.2647E-004
 536.00  4.1295E-004
 536.50  3.9994E-004
 537.00  3.8764E-004
 537.50  3.7564E-004
 538.00  3.6378E-004
 538.50  3.5185E-004
 539.00  3.4021E-004
 539.50  3.2897E-004
 540.00  3.1838E-004
 540.50  3.0863E-004
 541.00  2.9930E-004
 541.50  2.9029E-004
 542.00  2.8137E-004
 542.50  2.7255E-004
 543.00  2.6407E-004
 543.50  2.5605E-004
 544.00  2.4842E-004
 544.50  2.4102E-004
 545.00  2.3386E-004
 545.50  2.2683E-004
 546.00  2.1993E-004
 546.50  2.1329E-004
 547.00  2.0709E-004
 547.50  2.0105E-004
 548.00  1.9513E-004
 548.50  1.8920E-004
 549.00  1.8309E-004
 549.50  1.7693E-004
 550.00  1.7086E-004
 550.50  1.6509E-004
 551.00  1.5964E-004
 551.50  1.5437E-004
 552.00  1.4937E-004
 552.50  1.4469E-004
 553.00  1.4005E-004
 553.50  1.3564E-004
 554.00  1.3127E-004
 554.50  1.2700E-004
 555.00  1.2285E-004
 555.50  1.1895E-004
 556.00  1.1532E-004
 556.50  1.1188E-004
 557.00  1.0845E-004
 557.50  1.0528E-004
 558.00  1.0202E-004
 558.50  9.8783E-005
 559.00  9.5592E-005
 559.50  9.2760E-005
 560.00  9.0006E-005
 560.50  8.7494E-005
 561.00  8.5235E-005
 561.50  8.2836E-005
 562.00  8.0426E-005
 562.50  7.7870E-005
 563.00  7.5407E-005
 563.50  7.2892E-005
 564.00  7.0619E-005
 564.50  6.8373E-005
 565.00  6.6344E-005
 565.50  6.4477E-005
 566.00  6.2808E-005
 566.50  6.1196E-005
 567.00  5.9673E-005
 567.50  5.8197E-005
 568.00  5.6591E-005
 568.50  5.4941E-005
 569.00  5.3416E-005
 569.50  5.2160E-005
 570.00  5.0913E-005
 570.50  4.9565E-005
 571.00  4.8425E-005
 571.50  4.7082E-005
 572.00  4.5424E-005
 572.50  4.4012E-005
 573.00  4.2713E-005
 573.50  4.1280E-005
 574.00  4.0068E-005
 574.50  3.9015E-005
 575.00  3.7806E-005
 575.50  3.6594E-005
 576.00  3.5475E-005
 576.50  3.4489E-005
 577.00  3.3617E-005
 577.50  3.2785E-005
 578.00  3.1933E-005
 578.50  3.1122E-005
 579.00  3.0470E-005
 579.50  2.9932E-005
 580.00  2.9508E-005
 580.50  2.9380E-005
 581.00  2.9040E-005
 581.50  2.8348E-005
 582.00  2.7719E-005
 582.50  2.6962E-005
 583.00  2.6119E-005
 583.50  2.5299E-005
 584.00  2.4348E-005
 584.50  2.3444E-005
 585.00  2.2625E-005
 585.50  2.1889E-005
 586.00  2.1421E-005
 586.50  2.1134E-005
 587.00  2.0966E-005
 587.50  2.0722E-005
 588.00  2.0250E-005
 588.50  1.9773E-005
 589.00  1.9346E-005
 589.50  1.8756E-005
 590.00  1.8277E-005
 590.50  1.7980E-005
 591.00  1.7549E-005
 591.50  1.7048E-005
 592.00  1.6669E-005
 592.50  1.6148E-005
 593.00  1.5709E-005
 593.50  1.5250E-005
 594.00  1.4844E-005
 594.50  1.4313E-005
 595.00  1.3790E-005
 595.50  1.3306E-005
 596.00  1.2771E-005
 596.50  1.2355E-005
 597.00  1.2090E-005
 597.50  1.1810E-005
 598.00  1.1678E-005
 598.50  1.1790E-005
 599.00  1.1568E-005
 599.50  1.1386E-005
 600.00  1.1246E-005
 600.50  1.1072E-005
 601.00  1.1117E-005
 601.50  1.1158E-005
 602.00  1.1213E-005
 602.50  1.1617E-005
 603.00  1.1633E-005
 603.50  1.1469E-005
 604.00  1.1493E-005
 604.50  1.1304E-005
 605.00  1.0568E-005
 605.50  1.0371E-005
 606.00  1.0338E-005
 606.50  1.0414E-005
 607.00  1.0406E-005
 607.50  1.0381E-005
 608.00  1.0320E-005
 608.50  9.9733E-006
 609.00  9.6472E-006
 609.50  9.6611E-006
 610.00  9.5829E-006
 610.50  9.6957E-006
 611.00  9.8664E-006
 611.50  9.9390E-006
 612.00  9.8542E-006
 612.50  9.7942E-006
 613.00  9.4552E-006
 613.50  9.3050E-006
 614.00  8.9188E-006
 614.50  8.5601E-006
 615.00  8.4893E-006
 615.50  8.5632E-006
 616.00  8.9972E-006
 616.50  9.1585E-006
 617.00  8.7559E-006
 617.50  8.0999E-006
 618.00  6.8560E-006
 618.50  5.6367E-006
 619.00  4.9251E-006
 619.50  4.6024E-006
 620.00  4.6446E-006
 620.50  4.9526E-006
 621.00  5.3522E-006
 621.50  5.8094E-006
 622.00  6.1610E-006
 622.50  6.2928E-006
 623.00  6.4981E-006
 623.50  6.7927E-006
 624.00  6.7225E-006
 624.50  6.4030E-006
 625.00  6.2041E-006
 625.50  6.0031E-006
 626.00  6.1307E-006
 626.50  6.7232E-006
 627.00  7.4995E-006
 627.50  7.8040E-006
 628.00  7.7640E-006
 628.50  7.6422E-006
 629.00  7.1284E-006
 629.50  6.9470E-006
 630.00  6.8865E-006
 630.50  6.8076E-006
 631.00  6.9122E-006
 631.50  6.8088E-006
 632.00  6.4545E-006
 632.50  5.9974E-006
 633.00  5.2469E-006
 633.50  4.5242E-006
 634.00  4.3858E-006
 634.50  4.6590E-006
 635.00  5.0459E-006
 635.50  5.1240E-006
 636.00  5.2146E-006
 636.50  5.4867E-006
 637.00  5.5633E-006
 637.50  5.1733E-006
 638.00  5.2569E-006
 638.50  4.8732E-006
 639.00  4.2374E-006
 639.50  4.0887E-006
 640.00  4.0094E-006
 640.50  3.8308E-006
 641.00  3.9729E-006
 641.50  3.7511E-006
 642.00  3.3786E-006
 642.50  3.4357E-006
 643.00  3.2415E-006
 643.50  2.8822E-006
 644.00  2.8698E-006
 644.50  2.7954E-006
 645.00  2.6335E-006
 645.50  2.5928E-006
 646.00  2.6433E-006
 646.50  3.1041E-006
 647.00  3.5631E-006
 647.50  4.0221E-006
 648.00  4.5266E-006
 648.50  4.6763E-006
 649.00  4.7182E-006
 649.50  4.5071E-006
 650.00  3.9746E-006
 650.50  3.4527E-006
 651.00  2.7062E-006
 651.50  1.9635E-006
 652.00  1.5275E-006
 652.50  1.2693E-006
 653.00  1.1552E-006
 653.50  1.6377E-006
 654.00  2.5046E-006
 654.50  3.4019E-006
 655.00  4.1817E-006
 655.50  4.5856E-006
 656.00  4.9955E-006
 656.50  5.0257E-006
 657.00  4.8196E-006
 657.50  4.4528E-006
 658.00  4.0566E-006
 658.50  3.8332E-006
 659.00  4.0877E-006
 659.50  4.2283E-006
 660.00  4.4237E-006
 660.50  4.7168E-006
 661.00  4.6485E-006
 661.50  4.5801E-006
 662.00  4.7033E-006
 662.50  4.9036E-006
 663.00  4.2931E-006
 663.50  3.3188E-006
 664.00  2.5361E-006
 664.50  2.2486E-006
 665.00  1.6455E-006
 665.50  1.8819E-006
 666.00  2.6040E-006
 666.50  2.9937E-006
 667.00  3.3451E-006
 667.50  3.6684E-006
 668.00  3.4085E-006
 668.50  2.5599E-006
 669.00  1.7632E-006
 669.50  1.4850E-006
 670.00  1.1368E-006
 670.50  9.5785E-007
 671.00  1.2533E-006
 671.50  1.1146E-006
 672.00  7.7816E-007
 672.50  6.5114E-007
 673.00  1.0719E-006
 673.50  1.3404E-006
 674.00  1.5340E-006
 674.50  1.7726E-006
 675.00  1.9519E-006
 675.50  2.2224E-006
 676.00  2.5987E-006
 676.50  3.1080E-006
 677.00  3.1291E-006
 677.50  3.1447E-006
 678.00  2.6713E-006
 678.50  1.9122E-006
 679.00  1.4938E-006
 679.50  7.4006E-007
 680.00  1.8906E-007
 680.50  2.2453E-007
 681.00  7.4286E-008
 681.50  0.0000E+000
 682.00  0.0000E+000
 682.50  0.0000E+000
 683.00  0.0000E+000
 683.50  0.0000E+000
 684.00  1.8719E-007
 684.50  5.8795E-007
 685.00  1.0068E-006
 685.50  1.4324E-006
 686.00  1.7788E-006
 686.50  1.3462E-006
 687.00  1.2854E-006
 687.50  8.7978E-007
 688.00  1.3805E-006
 688.50  2.3089E-006
 689.00  2.6340E-006
 689.50  3.0119E-006
 690.00  3.2022E-006
 690.50  2.0930E-006
 691.00  1.6255E-006
 691.50  1.4731E-006
 692.00  1.1421E-006
 692.50  3.7509E-007
 693.00  4.6932E-008
 693.50  0.0000E+000
 694.00  0.0000E+000
 694.50  0.0000E+000
 695.00  1.5114E-007
 695.50  6.4633E-007
 696.00  1.5080E-006
 696.50  2.3013E-006
 697.00  2.2251E-006
 697.50  2.2194E-006
 698.00  2.1887E-006
 698.50  1.3694E-006
 699.00  8.8799E-007
 699.50  3.0343E-007
 700.00  0.0000E+000
 700.50  0.0000E+000
 701.00  0.0000E+000
 701.50  0.0000E+000
 702.00  0.0000E+000
 702.50  0.0000E+000
 703.00  0.0000E+000
 703.50  0.0000E+000
 704.00  0.0000E+000
 704.50  0.0000E+000
 705.00  0.0000E+000
 705.50  0.0000E+000
 706.00  0.0000E+000
 706.50  1.0007E-006
 707.00  2.4300E-006
 707.50  4.1087E-006
 708.00  5.0705E-006
 708.50  5.3584E-006
 709.00  5.3519E-006
 709.50  4.5231E-006
 710.00  3.9591E-006
 710.50  2.9996E-006
 711.00  1.5688E-006
 711.50  9.5406E-007
 712.00  3.7581E-007
 712.50  1.6845E-008
 713.00  0.0000E+000
 713.50  0.0000E+000
 714.00  0.0000E+000
 714.50  0.0000E+000
 715.00  0.0000E+000
 715.50  0.0000E+000
 716.00  0.0000E+000
 716.50  0.0000E+000
 717.00  0.0000E+000
 717.50  0.0000E+000
 718.00  5.1101E-008
 718.50  2.2555E-007
 719.00  2.7741E-007
 719.50  9.5697E-008
 720.00  0.0000E+000
 720.50  0.0000E+000
 721.00  0.0000E+000
 721.50  8.8453E-009
 722.00  9.5292E-007
 722.50  1.7967E-006
 723.00  2.7006E-006
 723.50  4.0866E-006
 724.00  5.0717E-006
 724.50  5.3329E-006
 725.00  5.6359E-006
 725.50  5.0718E-006
 726.00  3.3561E-006
 726.50  2.0003E-006
 727.00  7.9522E-007
 727.50  1.0502E-007
 728.00  6.3347E-007
 728.50  1.6736E-006
 729.00  2.7319E-006
 729.50  3.3748E-006
 730.00  4.4611E-006
 730.50  4.9213E-006
 731.00  4.7269E-006
 731.50  6.0905E-006
 732.00  6.2798E-006
 732.50  5.4808E-006
 733.00  4.9132E-006
 733.50  4.5350E-006
 734.00  3.6514E-006
 734.50  3.5082E-006
 735.00  3.0249E-006
 735.50  2.6487E-006
 736.00  1.8886E-006
 736.50  1.0207E-006
 737.00  1.3111E-006
 737.50  2.5820E-006
 738.00  3.5765E-006
 738.50  5.4569E-006
 739.00  6.6846E-006
 739.50  8.0967E-006
 740.00  6.7054E-006
 740.50  4.8092E-006
 741.00  2.1070E-006
 741.50  5.8619E-007
 742.00  0.0000E+000
 742.50  0.0000E+000
 743.00  0.0000E+000
 743.50  4.9200E-007
 744.00  1.2946E-006
 744.50  1.9317E-006
 745.00  2.6860E-006
 745.50  2.3080E-006
 746.00  1.0662E-006
 746.50  1.0552E-007
 747.00  0.0000E+000
 747.50  0.0000E+000
 748.00  0.0000E+000
 748.50  0.0000E+000
 749.00  0.0000E+000
 749.50  0.0000E+000
 750.00  0.0000E+000
 750.50  0.0000E+000
 751.00  0.0000E+000
 751.50  0.0000E+000
 752.00  0.0000E+000
 752.50  0.0000E+000
 753.00  0.0000E+000
 753.50  0.0000E+000
 754.00  0.0000E+000
 754.50  0.0000E+000
 755.00  0.0000E+000
 755.50  0.0000E+000
 756.00  0.0000E+000
 756.50  0.0000E+000
 757.00  0.0000E+000
 757.50  0.0000E+000
 758.00  0.0000E+000
 758.50  0.0000E+000
 759.00  0.0000E+000
 759.50  0.0000E+000
 760.00  0.0000E+000
 760.50  0.0000E+000
 761.00  4.7502E-007
 761.50  1.6400E-006
 762.00  2.4554E-006
 762.50  2.4963E-006
 763.00  2.5406E-006
 763.50  2.6649E-006
 764.00  2.7336E-006
 764.50  3.3984E-006
 765.00  4.5496E-006
 765.50  5.5370E-006
 766.00  5.9448E-006
 766.50  5.0785E-006
 767.00  4.3525E-006
 767.50  3.3676E-006
 768.00  2.2039E-006
 768.50  2.0953E-006
 769.00  2.6306E-006
 769.50  3.2672E-006
 770.00  3.4764E-006
 770.50  3.1086E-006
 771.00  2.6069E-006
 771.50  1.8862E-006
 772.00  1.0061E-006
 772.50  2.3200E-006
 773.00  2.8325E-006
 773.50  3.3757E-006
 774.00  2.7676E-006
 774.50  3.3361E-006
 775.00  3.0338E-006
 775.50  3.7470E-006
 776.00  3.4681E-006
 776.50  3.3622E-006
 777.00  2.4275E-006
 777.50  1.6816E-006
 778.00  1.5608E-006
 778.50  1.6663E-006
 779.00  1.7269E-006
 779.50  1.3982E-006
 780.00  3.6128E-007
 780.50  6.9249E-009
 781.00  0.0000E+000
 781.50  0.0000E+000
 782.00  0.0000E+000
 782.50  0.0000E+000
 783.00  0.0000E+000
 783.50  0.0000E+000
 784.00  0.0000E+000
 784.50  1.8618E-007
 785.00  1.1811E-006
 785.50  2.1497E-006
 786.00  3.1911E-006
 786.50  2.8397E-006
 787.00  1.4670E-006
 787.50  1.6297E-006
 788.00  2.7105E-006
 788.50  3.8734E-006
 789.00  4.7374E-006
 789.50  4.6457E-006
 790.00  4.2516E-006
 790.50  4.6980E-006
 791.00  5.5356E-006
 791.50  7.4982E-006
 792.00  9.7893E-006
 792.50  1.0344E-005
 793.00  8.8661E-006
 793.50  6.6237E-006
 794.00  3.4690E-006
 794.50  1.8246E-006
 795.00  1.6992E-006
 795.50  2.1871E-006
 796.00  3.6979E-006
 796.50  5.3516E-006
 797.00  5.1353E-006
 797.50  4.5836E-006
 798.00  3.2481E-006
 798.50  7.6747E-007
 799.00  0.0000E+000
 799.50  0.0000E+000
 800.00  0.0000E+000
 800.50  0.0000E+000
 801.00  0.0000E+000
 801.50  0.0000E+000
 802.00  0.0000E+000
 802.50  0.0000E+000
 803.00  0.0000E+000
 803.50  0.0000E+000
 804.00  0.0000E+000
 804.50  0.0000E+000
 805.00  0.0000E+000
 805.50  0.0000E+000
 806.00  0.0000E+000
 806.50  0.0000E+000
 807.00  0.0000E+000
 807.50  0.0000E+000
 808.00  0.0000E+000
 808.50  0.0000E+000
 809.00  0.0000E+000
 809.50  0.0000E+000
 810.00  0.0000E+000
 810.50  0.0000E+000
 811.00  0.0000E+000
 811.50  0.0000E+000
 812.00  0.0000E+000
 812.50  0.0000E+000
 813.00  0.0000E+000
 813.50  0.0000E+000
 814.00  0.0000E+000
 814.50  1.5605E-007
 815.00  5.9483E-007
 815.50  4.3865E-007
 816.00  7.5768E-007
 816.50  1.2999E-006
 817.00  4.0719E-007
 817.50  0.0000E+000
 818.00  0.0000E+000
 818.50  0.0000E+000
 819.00  0.0000E+000
 819.50  0.0000E+000
 820.00  0.0000E+000
 820.50  0.0000E+000
 821.00  0.0000E+000
 821.50  0.0000E+000
 822.00  0.0000E+000
 822.50  0.0000E+000
 823.00  0.0000E+000
 823.50  0.0000E+000
 824.00  0.0000E+000
 824.50  0.0000E+000
 825.00  0.0000E+000
 825.50  3.3443E-007
 826.00  1.2703E-006
 826.50  1.6997E-006
 827.00  1.5687E-006
 827.50  1.6913E-006
 828.00  1.6744E-006
 828.50  1.6596E-006
 829.00  2.4306E-006
 829.50  2.7690E-006
 830.00  3.3182E-006
 830.50  4.8585E-006
 831.00  6.4092E-006
 831.50  6.3660E-006
 832.00  5.0239E-006
 832.50  2.8853E-006
 833.00  5.3098E-007
 833.50  0.0000E+000
 834.00  0.0000E+000
 834.50  0.0000E+000
 835.00  5.0857E-008
 835.50  2.7338E-007
 836.00  1.2547E-006
 836.50  3.4216E-006
 837.00  4.8310E-006
 837.50  6.3829E-006
 838.00  9.0336E-006
 838.50  1.1290E-005
 839.00  1.2841E-005
 839.50  1.3917E-005
 840.00  1.2084E-005
 840.50  9.2908E-006
 841.00  5.3395E-006
 841.50  1.2374E-006
 842.00  5.8779E-008
 842.50  0.0000E+000
 843.00  0.0000E+000
 843.50  0.0000E+000
 844.00  0.0000E+000
 844.50  2.7028E-007
 845.00  1.9167E-006
 845.50  2.3418E-006
 846.00  2.3533E-006
 846.50  3.4443E-006
 847.00  5.2302E-006
 847.50  6.1886E-006
 848.00  6.6702E-006
 848.50  8.5373E-006
 849.00  9.7601E-006
 849.50  9.0853E-006
 850.00  9.7086E-006
 850.50  1.1201E-005
 851.00  1.1095E-005
 851.50  1.1349E-005
 852.00  1.1949E-005
 852.50  1.1256E-005
 853.00  8.9080E-006
 853.50  8.2326E-006
 854.00  4.4917E-006
 854.50  4.2366E-006
 855.00  3.8910E-006
 855.50  3.6237E-006
 856.00  2.9234E-006
 856.50  3.8174E-006
 857.00  4.5734E-006
 857.50  4.7936E-006
 858.00  4.6843E-006
 858.50  3.6151E-006
 859.00  2.0322E-006
 859.50  3.7563E-007
 860.00  0.0000E+000
 860.50  0.0000E+000
 861.00  0.0000E+000
 861.50  0.0000E+000
 862.00  0.0000E+000
 862.50  0.0000E+000
 863.00  2.1375E-006
 863.50  3.7369E-006
 864.00  7.0169E-006
 864.50  9.5580E-006
 865.00  1.2748E-005
 865.50  1.5007E-005
 866.00  1.8829E-005
 866.50  1.9323E-005
 867.00  1.8186E-005
 867.50  1.5560E-005
 868.00  1.0470E-005
 868.50  6.0055E-006
 869.00  3.0352E-006
 869.50  1.6324E-006
 870.00  0.0000E+000
 870.50  0.0000E+000
 871.00  0.0000E+000
 871.50  0.0000E+000
 872.00  0.0000E+000
 872.50  0.0000E+000
 873.00  0.0000E+000
 873.50  2.5500E-006
 874.00  3.8882E-006
 874.50  6.6962E-006
 875.00  8.8649E-006
 875.50  1.2320E-005
 876.00  1.4184E-005
 876.50  1.8823E-005
 877.00  1.8731E-005
 877.50  2.5352E-005
 878.00  2.4190E-005
 878.50  2.5860E-005
 879.00  2.4480E-005
 879.50  2.2035E-005
 880.00  1.7373E-005
 880.50  1.7938E-005
 881.00  1.4445E-005
 881.50  1.0348E-005
 882.00  5.4713E-006
 882.50  1.4631E-006
 883.00  0.0000E+000
 883.50  0.0000E+000
 884.00  0.0000E+000
 884.50  0.0000E+000
 885.00  0.0000E+000
 885.50  0.0000E+000
 886.00  0.0000E+000
 886.50  0.0000E+000
 887.00  1.4529E-006
 887.50  4.0664E-006
 888.00  6.2534E-006
 888.50  6.6372E-006
 889.00  8.6880E-006
 889.50  1.3356E-005
 890.00  1.6338E-005
 890.50  2.0563E-005
 891.00  2.2455E-005
 891.50  2.3188E-005
 892.00  2.2085E-005
 892.50  2.1723E-005
 893.00  2.0699E-005
 893.50  1.8035E-005
 894.00  1.1711E-005
 894.50  5.0519E-006
 895.00  0.0000E+000
 895.50  0.0000E+000
 896.00  0.0000E+000
 896.50  0.0000E+000
 897.00  1.0462E-006
 897.50  1.7815E-006
 898.00  4.5521E-006
 898.50  8.7533E-006
 899.00  1.0350E-005
 899.50  1.2578E-005
 900.00  1.4829E-005
 900.50  1.3814E-005
 901.00  1.1143E-005
 901.50  1.1920E-005
 902.00  1.3541E-005
 902.50  1.4878E-005
 903.00  1.8615E-005
 903.50  2.2078E-005
 904.00  2.4516E-005
 904.50  2.4614E-005
 905.00  2.3354E-005
 905.50  2.1184E-005
 906.00  2.2098E-005
 906.50  1.9691E-005
 907.00  1.5890E-005
 907.50  1.3016E-005
 908.00  7.9425E-006
 908.50  1.8543E-006
 909.00  0.0000E+000
 909.50  0.0000E+000
 910.00  0.0000E+000
 910.50  0.0000E+000
 911.00  0.0000E+000
 911.50  0.0000E+000
 912.00  0.0000E+000
 912.50  0.0000E+000
 913.00  2.9618E-007
 913.50  7.1880E-007
 914.00  8.8384E-007
 914.50  1.8090E-006
 915.00  2.8624E-007
 915.50  0.0000E+000
 916.00  0.0000E+000
 916.50  0.0000E+000
 917.00  0.0000E+000
 917.50  0.0000E+000
 918.00  0.0000E+000
 918.50  0.0000E+000
 919.00  0.0000E+000
 919.50  0.0000E+000
 920.00  1.1129E-006
 920.50  6.2393E-006
 921.00  9.8772E-006
 921.50  1.1248E-005
 922.00  9.7701E-006
 922.50  8.8585E-006
 923.00  7.1518E-006
 923.50  4.3949E-006
 924.00  2.1206E-006
 924.50  8.5600E-007
 925.00  1.3454E-008
 925.50  0.0000E+000
 926.00  0.0000E+000
 926.50  3.4567E-006
 927.00  7.1391E-006
 927.50  7.2195E-006
 928.00  9.4161E-006
 928.50  1.2559E-005
 929.00  1.1292E-005
 929.50  1.4034E-005
 930.00  1.7940E-005
 930.50  1.7040E-005
 931.00  1.4177E-005
 931.50  1.2890E-005
 932.00  6.2263E-006
 932.50  8.4603E-006
 933.00  7.8078E-006
 933.50  9.3358E-006
 934.00  1.1800E-005
 934.50  1.2752E-005
 935.00  1.1667E-005
 935.50  1.3738E-005
 936.00  1.1691E-005
 936.50  6.6084E-006
 937.00  2.6229E-006
 937.50  0.0000E+000
 938.00  0.0000E+000
 938.50  0.0000E+000
 939.00  0.0000E+000
 939.50  0.0000E+000
 940.00  1.3771E-006
 940.50  5.5426E-006
 941.00  1.3631E-005
 941.50  1.7595E-005
 942.00  1.9089E-005
 942.50  1.9744E-005
 943.00  2.0612E-005
 943.50  2.5835E-005
 944.00  3.1357E-005
 944.50  3.4227E-005
 945.00  3.3892E-005
 945.50  3.2164E-005
 946.00  2.3061E-005
 946.50  1.0796E-005
 947.00  8.9351E-006
 947.50  6.8377E-006
 948.00  6.0139E-006
 948.50  1.0758E-005
 949.00  2.0363E-005
 949.50  2.3081E-005
 950.00  2.3830E-005
 950.50  1.6329E-005
 951.00  5.4739E-006
 951.50  0.0000E+000
 952.00  0.0000E+000
 952.50  0.0000E+000
 953.00  0.0000E+000
 953.50  0.0000E+000
 954.00  0.0000E+000
 954.50  0.0000E+000
 955.00  0.0000E+000
 955.50  0.0000E+000
 956.00  0.0000E+000
 956.50  0.0000E+000
 957.00  0.0000E+000
 957.50  0.0000E+000
 958.00  0.0000E+000
 958.50  0.0000E+000
 959.00  0.0000E+000
 959.50  0.0000E+000
 960.00  0.0000E+000
 960.50  0.0000E+000
 961.00  0.0000E+000
 961.50  0.0000E+000
 962.00  0.0000E+000
 962.50  0.0000E+000
 963.00  0.0000E+000
 963.50  1.0188E-005
 964.00  3.9330E-005
 964.50  5.9335E-005
 965.00  8.0518E-005
 965.50  9.3177E-005
 966.00  9.3311E-005
 966.50  7.3778E-005
 967.00  6.0232E-005
 967.50  5.3352E-005
 968.00  4.8809E-005
 968.50  3.8234E-005
 969.00  3.2038E-005
 969.50  1.8815E-005
 970.00  0.0000E+000
 970.50  0.0000E+000
 971.00  0.0000E+000
 971.50  0.0000E+000
 972.00  0.0000E+000
 972.50  0.0000E+000
 973.00  0.0000E+000
 973.50  0.0000E+000
 974.00  0.0000E+000
 974.50  0.0000E+000
 975.00  0.0000E+000
 975.50  0.0000E+000
 976.00  0.0000E+000
 976.50  1.6598E-006
 977.00  7.6212E-006
 977.50  2.6972E-005
 978.00  4.6221E-005
 978.50  7.0179E-005
 979.00  7.9278E-005
 979.50  7.6118E-005
 980.00  7.9233E-005
 980.50  7.2865E-005
 981.00  5.7492E-005
 981.50  3.2505E-005
 982.00  2.0444E-005
 982.50  9.5602E-006
 983.00  3.4002E-006
 983.50  1.0233E-006
 984.00  1.1148E-005
 984.50  1.2140E-005
 985.00  1.2118E-005
 985.50  1.0914E-005
 986.00  7.1271E-006
 986.50  5.9780E-006
 987.00  9.9536E-006
 987.50  2.0385E-005
 988.00  3.7098E-005
 988.50  5.4023E-005
 989.00  6.5718E-005
 989.50  7.3014E-005
 990.00  6.0400E-005
 990.50  3.9200E-005
 991.00  1.5343E-005
 991.50  0.0000E+000
 992.00  0.0000E+000
 992.50  0.0000E+000
 993.00  0.0000E+000
 993.50  3.0003E-006
 994.00  1.1219E-005
 994.50  2.3620E-005
 995.00  2.4887E-005
 995.50  1.7195E-005
 996.00  3.9599E-006
 996.50  0.0000E+000
 997.00  0.0000E+000
 997.50  0.0000E+000
 998.00  0.0000E+000
 998.50  0.0000E+000
 999.00  0.0000E+000
 999.50  0.0000E+000
1000.00  0.0000E+000
1000.50  0.0000E+000
1001.00  0.0000E+000
1001.50  0.0000E+000
1002.00  0.0000E+000
1002.50  0.0000E+000
1003.00  0.0000E+000
1003.50  0.0000E+000
1004.00  0.0000E+000
1004.50  0.0000E+000
1005.00  0.0000E+000
1005.50  0.0000E+000
1006.00  0.0000E+000
1006.50  0.0000E+000
1007.00  0.0000E+000
1007.50  0.0000E+000
1008.00  0.0000E+000
1008.50  0.0000E+000
1009.00  0.0000E+000
1009.50  0.0000E+000
1010.00  0.0000E+000
1010.50  0.0000E+000
1011.00  0.0000E+000
1011.50  0.0000E+000
1012.00  0.0000E+000
1012.50  0.0000E+000
1013.00  0.0000E+000
1013.50  0.0000E+000
1014.00  0.0000E+000
1014.50  0.0000E+000
1015.00  0.0000E+000
1015.50  0.0000E+000
1016.00  0.0000E+000
1016.50  0.0000E+000
1017.00  0.0000E+000
1017.50  0.0000E+000
1018.00  0.0000E+000
1018.50  0.0000E+000
1019.00  0.0000E+000
1019.50  0.0000E+000
1020.00  0.0000E+000
1020.50  0.0000E+000
1021.00  0.0000E+000
1021.50  0.0000E+000
1022.00  0.0000E+000
1022.50  0.0000E+000
1023.00  0.0000E+000
1023.50  0.0000E+000
1024.00  0.0000E+000
1024.50  0.0000E+000
1025.00  0.0000E+000
1025.50  0.0000E+000
1026.00  0.0000E+000
1026.50  0.0000E+000
1027.00  0.0000E+000
1027.50  0.0000E+000
1028.00  0.0000E+000
1028.50  0.0000E+000
1029.00  0.0000E+000
1029.50  0.0000E+000
1030.00  0.0000E+000
1030.50  0.0000E+000
1031.00  0.0000E+000
1031.50  0.0000E+000
1032.00  0.0000E+000
1032.50  0.0000E+000
1033.00  0.0000E+000
1033.50  0.0000E+000
1034.00  0.0000E+000
1034.50  0.0000E+000
1035.00  0.0000E+000
1035.50  0.0000E+000
1036.00  0.0000E+000
1036.50  0.0000E+000
1037.00  0.0000E+000
1037.50  0.0000E+000
1038.00  0.0000E+000
1038.50  0.0000E+000
1039.00  0.0000E+000
1039.50  0.0000E+000
1040.00  0.0000E+000
1040.50  0.0000E+000
1041.00  0.0000E+000
1041.50  0.0000E+000
1042.00  0.0000E+000
1042.50  0.0000E+000
1043.00  0.0000E+000
1043.50  0.0000E+000
1044.00  0.0000E+000
1044.50  0.0000E+000
1045.00  0.0000E+000
1045.50  0.0000E+000
1046.00  0.0000E+000
1046.50  0.0000E+000
1047.00  0.0000E+000
1047.50  0.0000E+000
1048.00  0.0000E+000
1048.50  0.0000E+000
1049.00  0.0000E+000
1049.50  0.0000E+000
1050.00  0.0000E+000
1050.50  0.0000E+000
1051.00  0.0000E+000
1051.50  0.0000E+000
1052.00  0.0000E+000
1052.50  0.0000E+000
1053.00  0.0000E+000
1053.50  0.0000E+000
1054.00  0.0000E+000
1054.50  0.0000E+000
1055.00  0.0000E+000
1055.50  0.0000E+000
1056.00  0.0000E+000
1056.50  0.0000E+000
1057.00  0.0000E+000
1057.50  0.0000E+000
1058.00  0.0000E+000
1058.50  0.0000E+000
1059.00  0.0000E+000
1059.50  0.0000E+000
1060.00  0.0000E+000
1060.50  0.0000E+000
1061.00  0.0000E+000
1061.50  0.0000E+000
1062.00  0.0000E+000
1062.50  0.0000E+000
1063.00  0.0000E+000
1063.50  0.0000E+000
1064.00  0.0000E+000
1064.50  0.0000E+000
1065.00  0.0000E+000
1065.50  0.0000E+000
1066.00  0.0000E+000
1066.50  0.0000E+000
1067.00  0.0000E+000
1067.50  0.0000E+000
1068.00  0.0000E+000
1068.50  0.0000E+000
1069.00  0.0000E+000
1069.50  0.0000E+000
1070.00  0.0000E+000
1070.50  0.0000E+000
1071.00  0.0000E+000
1071.50  0.0000E+000
1072.00  0.0000E+000
1072.50  0.0000E+000
1073.00  0.0000E+000
1073.50  0.0000E+000
1074.00  0.0000E+000
1074.50  0.0000E+000
1075.00  0.0000E+000
1075.50  0.0000E+000
1076.00  0.0000E+000
1076.50  0.0000E+000
1077.00  0.0000E+000
1077.50  0.0000E+000
1078.00  0.0000E+000
1078.50  0.0000E+000
1079.00  0.0000E+000
1079.50  0.0000E+000
1080.00  0.0000E+000
1080.50  0.0000E+000
1081.00  0.0000E+000
1081.50  0.0000E+000
1082.00  0.0000E+000
1082.50  0.0000E+000
1083.00  0.0000E+000
1083.50  0.0000E+000
1084.00  0.0000E+000
1084.50  0.0000E+000
1085.00  0.0000E+000
1085.50  0.0000E+000
1086.00  0.0000E+000
1086.50  0.0000E+000
1087.00  0.0000E+000
1087.50  0.0000E+000
1088.00  0.0000E+000
1088.50  0.0000E+000
1089.00  0.0000E+000
1089.50  0.0000E+000
1090.00  0.0000E+000
1090.50  0.0000E+000
1091.00  0.0000E+000
1091.50  0.0000E+000
1092.00  0.0000E+000
1092.50  0.0000E+000
1093.00  0.0000E+000
1093.50  0.0000E+000
1094.00  0.0000E+000
1094.50  0.0000E+000
1095.00  0.0000E+000
1095.50  0.0000E+000
1096.00  0.0000E+000
1096.50  0.0000E+000
1097.00  0.0000E+000
1097.50  0.0000E+000
1098.00  0.0000E+000
1098.50  0.0000E+000
1099.00  0.0000E+000
1099.50  0.0000E+000
1100.00  0.0000E+000
1100.50  0.0000E+000
1101.00  0.0000E+000
1101.50  0.0000E+000
1102.00  0.0000E+000
1102.50  0.0000E+000
1103.00  0.0000E+000
1103.50  0.0000E+000
1104.00  0.0000E+000
1104.50  0.0000E+000
1105.00  0.0000E+000
1105.50  0.0000E+000
1106.00  0.0000E+000
1106.50  0.0000E+000
1107.00  0.0000E+000
1107.50  0.0000E+000
1108.00  0.0000E+000
1108.50  0.0000E+000
1109.00  0.0000E+000
1109.50  0.0000E+000
1110.00  0.0000E+000
1110.50  0.0000E+000
1111.00  0.0000E+000
1111.50  0.0000E+000
1112.00  0.0000E+000
1112.50  0.0000E+000
1113.00  0.0000E+000
1113.50  0.0000E+000
1114.00  0.0000E+000
1114.50  0.0000E+000
1115.00  0.0000E+000
1115.50  0.0000E+000
1116.00  0.0000E+000
1116.50  0.0000E+000
1117.00  0.0000E+000
1117.50  0.0000E+000
1118.00  0.0000E+000
1118.50  0.0000E+000
1119.00  0.0000E+000
1119.50  0.0000E+000
1120.00  0.0000E+000
1120.50  0.0000E+000
1121.00  0.0000E+000
1121.50  0.0000E+000
1122.00  0.0000E+000
1122.50  0.0000E+000
1123.00  0.0000E+000
1123.50  0.0000E+000
1124.00  0.0000E+000
1124.50  0.0000E+000
1125.00  0.0000E+000
1125.50  0.0000E+000
1126.00  0.0000E+000
1126.50  0.0000E+000
1127.00  0.0000E+000
1127.50  0.0000E+000
: 6
