" File: 160128_ReferenceSpectra\9.IRR
" RAD->  Wave:366.44nm  Pix:434  Val:  0.000  Time:70ms  Avg:5  Sm:1  Sg:1  Tc:off  SNAP  Xt:1  Ch:1  Xtrig wnmcal >RAD-IS6.CAL
 180.00  0.0000E+000
 180.50  0.0000E+000
 181.00  0.0000E+000
 181.50  0.0000E+000
 182.00  0.0000E+000
 182.50  0.0000E+000
 183.00  0.0000E+000
 183.50  0.0000E+000
 184.00  0.0000E+000
 184.50  0.0000E+000
 185.00  0.0000E+000
 185.50  0.0000E+000
 186.00  0.0000E+000
 186.50  0.0000E+000
 187.00  0.0000E+000
 187.50  0.0000E+000
 188.00  0.0000E+000
 188.50  0.0000E+000
 189.00  0.0000E+000
 189.50  0.0000E+000
 190.00  0.0000E+000
 190.50  0.0000E+000
 191.00  0.0000E+000
 191.50  0.0000E+000
 192.00  0.0000E+000
 192.50  0.0000E+000
 193.00  0.0000E+000
 193.50  0.0000E+000
 194.00  0.0000E+000
 194.50  0.0000E+000
 195.00  0.0000E+000
 195.50  0.0000E+000
 196.00  0.0000E+000
 196.50  0.0000E+000
 197.00  0.0000E+000
 197.50  0.0000E+000
 198.00  0.0000E+000
 198.50  0.0000E+000
 199.00  0.0000E+000
 199.50  0.0000E+000
 200.00  0.0000E+000
 200.50  0.0000E+000
 201.00  0.0000E+000
 201.50  0.0000E+000
 202.00  0.0000E+000
 202.50  0.0000E+000
 203.00  0.0000E+000
 203.50  0.0000E+000
 204.00  0.0000E+000
 204.50  0.0000E+000
 205.00  0.0000E+000
 205.50  0.0000E+000
 206.00  0.0000E+000
 206.50  0.0000E+000
 207.00  0.0000E+000
 207.50  0.0000E+000
 208.00  0.0000E+000
 208.50  0.0000E+000
 209.00  0.0000E+000
 209.50  0.0000E+000
 210.00  0.0000E+000
 210.50  0.0000E+000
 211.00  0.0000E+000
 211.50  0.0000E+000
 212.00  0.0000E+000
 212.50  0.0000E+000
 213.00  0.0000E+000
 213.50  0.0000E+000
 214.00  0.0000E+000
 214.50  0.0000E+000
 215.00  0.0000E+000
 215.50  0.0000E+000
 216.00  0.0000E+000
 216.50  0.0000E+000
 217.00  0.0000E+000
 217.50  0.0000E+000
 218.00  0.0000E+000
 218.50  0.0000E+000
 219.00  0.0000E+000
 219.50  0.0000E+000
 220.00  0.0000E+000
 220.50  0.0000E+000
 221.00  0.0000E+000
 221.50  0.0000E+000
 222.00  0.0000E+000
 222.50  0.0000E+000
 223.00  0.0000E+000
 223.50  0.0000E+000
 224.00  0.0000E+000
 224.50  0.0000E+000
 225.00  0.0000E+000
 225.50  0.0000E+000
 226.00  0.0000E+000
 226.50  0.0000E+000
 227.00  0.0000E+000
 227.50  0.0000E+000
 228.00  0.0000E+000
 228.50  0.0000E+000
 229.00  0.0000E+000
 229.50  0.0000E+000
 230.00  0.0000E+000
 230.50  0.0000E+000
 231.00  0.0000E+000
 231.50  0.0000E+000
 232.00  0.0000E+000
 232.50  0.0000E+000
 233.00  0.0000E+000
 233.50  0.0000E+000
 234.00  0.0000E+000
 234.50  0.0000E+000
 235.00  0.0000E+000
 235.50  0.0000E+000
 236.00  0.0000E+000
 236.50  0.0000E+000
 237.00  0.0000E+000
 237.50  0.0000E+000
 238.00  0.0000E+000
 238.50  0.0000E+000
 239.00  0.0000E+000
 239.50  0.0000E+000
 240.00  0.0000E+000
 240.50  0.0000E+000
 241.00  0.0000E+000
 241.50  0.0000E+000
 242.00  0.0000E+000
 242.50  0.0000E+000
 243.00  0.0000E+000
 243.50  0.0000E+000
 244.00  0.0000E+000
 244.50  0.0000E+000
 245.00  0.0000E+000
 245.50  0.0000E+000
 246.00  0.0000E+000
 246.50  0.0000E+000
 247.00  0.0000E+000
 247.50  0.0000E+000
 248.00  0.0000E+000
 248.50  0.0000E+000
 249.00  0.0000E+000
 249.50  0.0000E+000
 250.00  0.0000E+000
 250.50  0.0000E+000
 251.00  0.0000E+000
 251.50  0.0000E+000
 252.00  0.0000E+000
 252.50  0.0000E+000
 253.00  0.0000E+000
 253.50  0.0000E+000
 254.00  0.0000E+000
 254.50  0.0000E+000
 255.00  0.0000E+000
 255.50  0.0000E+000
 256.00  0.0000E+000
 256.50  0.0000E+000
 257.00  0.0000E+000
 257.50  0.0000E+000
 258.00  0.0000E+000
 258.50  0.0000E+000
 259.00  0.0000E+000
 259.50  0.0000E+000
 260.00  0.0000E+000
 260.50  0.0000E+000
 261.00  0.0000E+000
 261.50  0.0000E+000
 262.00  0.0000E+000
 262.50  0.0000E+000
 263.00  0.0000E+000
 263.50  0.0000E+000
 264.00  0.0000E+000
 264.50  0.0000E+000
 265.00  0.0000E+000
 265.50  0.0000E+000
 266.00  0.0000E+000
 266.50  0.0000E+000
 267.00  0.0000E+000
 267.50  0.0000E+000
 268.00  0.0000E+000
 268.50  0.0000E+000
 269.00  0.0000E+000
 269.50  0.0000E+000
 270.00  0.0000E+000
 270.50  0.0000E+000
 271.00  0.0000E+000
 271.50  0.0000E+000
 272.00  0.0000E+000
 272.50  0.0000E+000
 273.00  0.0000E+000
 273.50  0.0000E+000
 274.00  0.0000E+000
 274.50  0.0000E+000
 275.00  0.0000E+000
 275.50  0.0000E+000
 276.00  0.0000E+000
 276.50  0.0000E+000
 277.00  0.0000E+000
 277.50  0.0000E+000
 278.00  0.0000E+000
 278.50  0.0000E+000
 279.00  0.0000E+000
 279.50  0.0000E+000
 280.00  0.0000E+000
 280.50  0.0000E+000
 281.00  0.0000E+000
 281.50  0.0000E+000
 282.00  0.0000E+000
 282.50  0.0000E+000
 283.00  0.0000E+000
 283.50  0.0000E+000
 284.00  0.0000E+000
 284.50  0.0000E+000
 285.00  0.0000E+000
 285.50  0.0000E+000
 286.00  0.0000E+000
 286.50  0.0000E+000
 287.00  0.0000E+000
 287.50  0.0000E+000
 288.00  0.0000E+000
 288.50  0.0000E+000
 289.00  0.0000E+000
 289.50  0.0000E+000
 290.00  0.0000E+000
 290.50  0.0000E+000
 291.00  0.0000E+000
 291.50  0.0000E+000
 292.00  0.0000E+000
 292.50  0.0000E+000
 293.00  0.0000E+000
 293.50  0.0000E+000
 294.00  0.0000E+000
 294.50  0.0000E+000
 295.00  0.0000E+000
 295.50  0.0000E+000
 296.00  0.0000E+000
 296.50  0.0000E+000
 297.00  0.0000E+000
 297.50  0.0000E+000
 298.00  0.0000E+000
 298.50  0.0000E+000
 299.00  0.0000E+000
 299.50  0.0000E+000
 300.00  0.0000E+000
 300.50  0.0000E+000
 301.00  0.0000E+000
 301.50  0.0000E+000
 302.00  0.0000E+000
 302.50  0.0000E+000
 303.00  0.0000E+000
 303.50  0.0000E+000
 304.00  0.0000E+000
 304.50  0.0000E+000
 305.00  0.0000E+000
 305.50  0.0000E+000
 306.00  0.0000E+000
 306.50  0.0000E+000
 307.00  0.0000E+000
 307.50  0.0000E+000
 308.00  0.0000E+000
 308.50  0.0000E+000
 309.00  0.0000E+000
 309.50  0.0000E+000
 310.00  0.0000E+000
 310.50  0.0000E+000
 311.00  0.0000E+000
 311.50  0.0000E+000
 312.00  0.0000E+000
 312.50  0.0000E+000
 313.00  0.0000E+000
 313.50  0.0000E+000
 314.00  0.0000E+000
 314.50  0.0000E+000
 315.00  0.0000E+000
 315.50  0.0000E+000
 316.00  0.0000E+000
 316.50  0.0000E+000
 317.00  0.0000E+000
 317.50  0.0000E+000
 318.00  0.0000E+000
 318.50  0.0000E+000
 319.00  0.0000E+000
 319.50  0.0000E+000
 320.00  0.0000E+000
 320.50  0.0000E+000
 321.00  0.0000E+000
 321.50  0.0000E+000
 322.00  0.0000E+000
 322.50  0.0000E+000
 323.00  0.0000E+000
 323.50  0.0000E+000
 324.00  0.0000E+000
 324.50  0.0000E+000
 325.00  0.0000E+000
 325.50  0.0000E+000
 326.00  0.0000E+000
 326.50  0.0000E+000
 327.00  0.0000E+000
 327.50  0.0000E+000
 328.00  0.0000E+000
 328.50  0.0000E+000
 329.00  0.0000E+000
 329.50  0.0000E+000
 330.00  0.0000E+000
 330.50  0.0000E+000
 331.00  0.0000E+000
 331.50  0.0000E+000
 332.00  0.0000E+000
 332.50  0.0000E+000
 333.00  0.0000E+000
 333.50  0.0000E+000
 334.00  0.0000E+000
 334.50  0.0000E+000
 335.00  0.0000E+000
 335.50  0.0000E+000
 336.00  0.0000E+000
 336.50  0.0000E+000
 337.00  0.0000E+000
 337.50  0.0000E+000
 338.00  0.0000E+000
 338.50  0.0000E+000
 339.00  0.0000E+000
 339.50  0.0000E+000
 340.00  0.0000E+000
 340.50  0.0000E+000
 341.00  0.0000E+000
 341.50  0.0000E+000
 342.00  0.0000E+000
 342.50  0.0000E+000
 343.00  0.0000E+000
 343.50  0.0000E+000
 344.00  0.0000E+000
 344.50  0.0000E+000
 345.00  0.0000E+000
 345.50  0.0000E+000
 346.00  0.0000E+000
 346.50  0.0000E+000
 347.00  0.0000E+000
 347.50  0.0000E+000
 348.00  0.0000E+000
 348.50  0.0000E+000
 349.00  0.0000E+000
 349.50  0.0000E+000
 350.00  0.0000E+000
 350.50  0.0000E+000
 351.00  0.0000E+000
 351.50  0.0000E+000
 352.00  0.0000E+000
 352.50  0.0000E+000
 353.00  0.0000E+000
 353.50  0.0000E+000
 354.00  0.0000E+000
 354.50  0.0000E+000
 355.00  0.0000E+000
 355.50  0.0000E+000
 356.00  0.0000E+000
 356.50  0.0000E+000
 357.00  0.0000E+000
 357.50  0.0000E+000
 358.00  0.0000E+000
 358.50  0.0000E+000
 359.00  0.0000E+000
 359.50  5.3033E-008
 360.00  8.3426E-007
 360.50  1.5961E-006
 361.00  1.8179E-006
 361.50  1.8537E-006
 362.00  1.8396E-006
 362.50  1.6451E-006
 363.00  1.3977E-006
 363.50  1.2551E-006
 364.00  1.2716E-006
 364.50  1.3225E-006
 365.00  1.2830E-006
 365.50  1.3164E-006
 366.00  1.4853E-006
 366.50  1.5290E-006
 367.00  1.5617E-006
 367.50  1.6398E-006
 368.00  1.5478E-006
 368.50  1.3434E-006
 369.00  1.2097E-006
 369.50  1.2875E-006
 370.00  1.4050E-006
 370.50  1.5273E-006
 371.00  1.6086E-006
 371.50  1.6050E-006
 372.00  1.3942E-006
 372.50  1.1511E-006
 373.00  9.3272E-007
 373.50  8.0200E-007
 374.00  7.4606E-007
 374.50  7.3056E-007
 375.00  9.0443E-007
 375.50  9.4309E-007
 376.00  9.4139E-007
 376.50  7.8030E-007
 377.00  6.0660E-007
 377.50  5.5610E-007
 378.00  4.6368E-007
 378.50  4.8369E-007
 379.00  5.3817E-007
 379.50  5.4043E-007
 380.00  7.5000E-007
 380.50  1.0147E-006
 381.00  1.2592E-006
 381.50  1.5541E-006
 382.00  1.8214E-006
 382.50  1.9995E-006
 383.00  2.0797E-006
 383.50  2.1905E-006
 384.00  2.3148E-006
 384.50  2.2380E-006
 385.00  2.2992E-006
 385.50  2.4276E-006
 386.00  2.4641E-006
 386.50  2.3897E-006
 387.00  2.3329E-006
 387.50  2.3050E-006
 388.00  2.3599E-006
 388.50  2.5920E-006
 389.00  3.1626E-006
 389.50  3.5623E-006
 390.00  3.7348E-006
 390.50  3.5997E-006
 391.00  3.3948E-006
 391.50  3.0860E-006
 392.00  2.8599E-006
 392.50  2.9388E-006
 393.00  3.0868E-006
 393.50  2.8387E-006
 394.00  2.8672E-006
 394.50  2.8774E-006
 395.00  2.6717E-006
 395.50  2.8263E-006
 396.00  2.7313E-006
 396.50  2.5594E-006
 397.00  2.4196E-006
 397.50  2.2567E-006
 398.00  2.2251E-006
 398.50  2.0946E-006
 399.00  2.1985E-006
 399.50  2.3992E-006
 400.00  2.4444E-006
 400.50  2.3510E-006
 401.00  2.3599E-006
 401.50  2.2693E-006
 402.00  2.3084E-006
 402.50  2.5396E-006
 403.00  2.7607E-006
 403.50  2.7250E-006
 404.00  2.5834E-006
 404.50  2.2501E-006
 405.00  2.1261E-006
 405.50  2.0088E-006
 406.00  1.9786E-006
 406.50  2.0435E-006
 407.00  2.1385E-006
 407.50  2.3235E-006
 408.00  2.5700E-006
 408.50  2.9670E-006
 409.00  3.2305E-006
 409.50  3.2742E-006
 410.00  3.4310E-006
 410.50  3.5919E-006
 411.00  3.6517E-006
 411.50  3.8469E-006
 412.00  3.9920E-006
 412.50  4.0683E-006
 413.00  4.0134E-006
 413.50  3.8352E-006
 414.00  3.7286E-006
 414.50  3.6220E-006
 415.00  3.5171E-006
 415.50  3.5575E-006
 416.00  3.5578E-006
 416.50  3.3048E-006
 417.00  2.8931E-006
 417.50  2.3962E-006
 418.00  2.2555E-006
 418.50  2.2214E-006
 419.00  2.3187E-006
 419.50  2.5031E-006
 420.00  2.5184E-006
 420.50  2.3951E-006
 421.00  2.4706E-006
 421.50  2.5128E-006
 422.00  2.8369E-006
 422.50  3.2239E-006
 423.00  3.4828E-006
 423.50  3.8189E-006
 424.00  4.0026E-006
 424.50  3.9319E-006
 425.00  3.8717E-006
 425.50  3.5605E-006
 426.00  3.2588E-006
 426.50  3.2223E-006
 427.00  3.3120E-006
 427.50  3.6403E-006
 428.00  4.0331E-006
 428.50  4.1452E-006
 429.00  4.1084E-006
 429.50  3.9617E-006
 430.00  3.8692E-006
 430.50  3.8273E-006
 431.00  3.8645E-006
 431.50  3.7906E-006
 432.00  3.6967E-006
 432.50  3.7283E-006
 433.00  3.9680E-006
 433.50  4.3128E-006
 434.00  4.6954E-006
 434.50  4.8888E-006
 435.00  4.9471E-006
 435.50  4.7905E-006
 436.00  4.4861E-006
 436.50  4.2113E-006
 437.00  3.9942E-006
 437.50  3.7858E-006
 438.00  3.7357E-006
 438.50  3.7493E-006
 439.00  3.6903E-006
 439.50  3.6910E-006
 440.00  3.8199E-006
 440.50  3.7199E-006
 441.00  3.5620E-006
 441.50  3.3544E-006
 442.00  3.0810E-006
 442.50  2.7702E-006
 443.00  2.6006E-006
 443.50  2.5622E-006
 444.00  2.5734E-006
 444.50  2.6877E-006
 445.00  2.7999E-006
 445.50  2.8936E-006
 446.00  3.0473E-006
 446.50  3.1664E-006
 447.00  3.2355E-006
 447.50  3.3925E-006
 448.00  3.5559E-006
 448.50  3.7224E-006
 449.00  4.0497E-006
 449.50  4.2779E-006
 450.00  4.4376E-006
 450.50  4.6329E-006
 451.00  4.8800E-006
 451.50  4.9952E-006
 452.00  5.1054E-006
 452.50  5.2138E-006
 453.00  5.2472E-006
 453.50  5.2026E-006
 454.00  5.2066E-006
 454.50  5.1257E-006
 455.00  4.9683E-006
 455.50  4.8052E-006
 456.00  4.8151E-006
 456.50  4.8069E-006
 457.00  4.8762E-006
 457.50  4.9402E-006
 458.00  4.8999E-006
 458.50  5.0154E-006
 459.00  5.0940E-006
 459.50  5.2003E-006
 460.00  5.3906E-006
 460.50  5.4738E-006
 461.00  5.4721E-006
 461.50  5.5692E-006
 462.00  5.6721E-006
 462.50  5.7696E-006
 463.00  5.8909E-006
 463.50  6.0047E-006
 464.00  5.9668E-006
 464.50  6.0435E-006
 465.00  6.0316E-006
 465.50  6.0622E-006
 466.00  6.1638E-006
 466.50  6.1676E-006
 467.00  6.2452E-006
 467.50  6.4223E-006
 468.00  6.5973E-006
 468.50  6.8305E-006
 469.00  7.1625E-006
 469.50  7.4350E-006
 470.00  7.7295E-006
 470.50  7.9929E-006
 471.00  8.3054E-006
 471.50  8.5882E-006
 472.00  8.8879E-006
 472.50  9.2775E-006
 473.00  9.7616E-006
 473.50  1.0279E-005
 474.00  1.0956E-005
 474.50  1.1619E-005
 475.00  1.2179E-005
 475.50  1.2674E-005
 476.00  1.3134E-005
 476.50  1.3582E-005
 477.00  1.4115E-005
 477.50  1.4836E-005
 478.00  1.5739E-005
 478.50  1.6761E-005
 479.00  1.7852E-005
 479.50  1.8951E-005
 480.00  2.0093E-005
 480.50  2.1314E-005
 481.00  2.2693E-005
 481.50  2.4210E-005
 482.00  2.5779E-005
 482.50  2.7410E-005
 483.00  2.9074E-005
 483.50  3.0813E-005
 484.00  3.2855E-005
 484.50  3.5143E-005
 485.00  3.7760E-005
 485.50  4.0653E-005
 486.00  4.3792E-005
 486.50  4.7162E-005
 487.00  5.0731E-005
 487.50  5.4529E-005
 488.00  5.8674E-005
 488.50  6.3140E-005
 489.00  6.8028E-005
 489.50  7.3240E-005
 490.00  7.8912E-005
 490.50  8.4965E-005
 491.00  9.1608E-005
 491.50  9.8948E-005
 492.00  1.0699E-004
 492.50  1.1579E-004
 493.00  1.2522E-004
 493.50  1.3551E-004
 494.00  1.4674E-004
 494.50  1.5866E-004
 495.00  1.7168E-004
 495.50  1.8568E-004
 496.00  2.0060E-004
 496.50  2.1683E-004
 497.00  2.3431E-004
 497.50  2.5319E-004
 498.00  2.7357E-004
 498.50  2.9528E-004
 499.00  3.1844E-004
 499.50  3.4341E-004
 500.00  3.7015E-004
 500.50  3.9885E-004
 501.00  4.2965E-004
 501.50  4.6239E-004
 502.00  4.9698E-004
 502.50  5.3368E-004
 503.00  5.7246E-004
 503.50  6.1337E-004
 504.00  6.5646E-004
 504.50  7.0225E-004
 505.00  7.5015E-004
 505.50  8.0049E-004
 506.00  8.5336E-004
 506.50  9.0888E-004
 507.00  9.6701E-004
 507.50  1.0275E-003
 508.00  1.0899E-003
 508.50  1.1538E-003
 509.00  1.2182E-003
 509.50  1.2833E-003
 510.00  1.3490E-003
 510.50  1.4151E-003
 511.00  1.4813E-003
 511.50  1.5467E-003
 512.00  1.6105E-003
 512.50  1.6724E-003
 513.00  1.7323E-003
 513.50  1.7901E-003
 514.00  1.8457E-003
 514.50  1.8987E-003
 515.00  1.9488E-003
 515.50  1.9952E-003
 516.00  2.0386E-003
 516.50  2.0784E-003
 517.00  2.1144E-003
 517.50  2.1463E-003
 518.00  2.1738E-003
 518.50  2.1962E-003
 519.00  2.2130E-003
 519.50  2.2238E-003
 520.00  2.2275E-003
 520.50  2.2244E-003
 521.00  2.2161E-003
 521.50  2.2040E-003
 522.00  2.1888E-003
 522.50  2.1710E-003
 523.00  2.1503E-003
 523.50  2.1266E-003
 524.00  2.1000E-003
 524.50  2.0708E-003
 525.00  2.0390E-003
 525.50  2.0049E-003
 526.00  1.9683E-003
 526.50  1.9295E-003
 527.00  1.8893E-003
 527.50  1.8473E-003
 528.00  1.8044E-003
 528.50  1.7612E-003
 529.00  1.7179E-003
 529.50  1.6749E-003
 530.00  1.6333E-003
 530.50  1.5928E-003
 531.00  1.5527E-003
 531.50  1.5124E-003
 532.00  1.4713E-003
 532.50  1.4299E-003
 533.00  1.3894E-003
 533.50  1.3508E-003
 534.00  1.3135E-003
 534.50  1.2772E-003
 535.00  1.2413E-003
 535.50  1.2057E-003
 536.00  1.1710E-003
 536.50  1.1379E-003
 537.00  1.1062E-003
 537.50  1.0757E-003
 538.00  1.0458E-003
 538.50  1.0161E-003
 539.00  9.8718E-004
 539.50  9.5885E-004
 540.00  9.3103E-004
 540.50  9.0402E-004
 541.00  8.7728E-004
 541.50  8.5078E-004
 542.00  8.2443E-004
 542.50  7.9854E-004
 543.00  7.7302E-004
 543.50  7.4813E-004
 544.00  7.2383E-004
 544.50  7.0006E-004
 545.00  6.7688E-004
 545.50  6.5432E-004
 546.00  6.3210E-004
 546.50  6.1052E-004
 547.00  5.8975E-004
 547.50  5.6926E-004
 548.00  5.4937E-004
 548.50  5.2950E-004
 549.00  5.0927E-004
 549.50  4.8908E-004
 550.00  4.6926E-004
 550.50  4.5008E-004
 551.00  4.3192E-004
 551.50  4.1483E-004
 552.00  3.9890E-004
 552.50  3.8405E-004
 553.00  3.7014E-004
 553.50  3.5730E-004
 554.00  3.4514E-004
 554.50  3.3343E-004
 555.00  3.2210E-004
 555.50  3.1134E-004
 556.00  3.0111E-004
 556.50  2.9096E-004
 557.00  2.8130E-004
 557.50  2.7168E-004
 558.00  2.6223E-004
 558.50  2.5281E-004
 559.00  2.4382E-004
 559.50  2.3516E-004
 560.00  2.2697E-004
 560.50  2.1910E-004
 561.00  2.1170E-004
 561.50  2.0463E-004
 562.00  1.9762E-004
 562.50  1.9088E-004
 563.00  1.8446E-004
 563.50  1.7818E-004
 564.00  1.7241E-004
 564.50  1.6674E-004
 565.00  1.6125E-004
 565.50  1.5590E-004
 566.00  1.5044E-004
 566.50  1.4509E-004
 567.00  1.3999E-004
 567.50  1.3483E-004
 568.00  1.3005E-004
 568.50  1.2560E-004
 569.00  1.2133E-004
 569.50  1.1720E-004
 570.00  1.1342E-004
 570.50  1.0966E-004
 571.00  1.0596E-004
 571.50  1.0246E-004
 572.00  9.8843E-005
 572.50  9.5372E-005
 573.00  9.2094E-005
 573.50  8.9017E-005
 574.00  8.6197E-005
 574.50  8.3482E-005
 575.00  8.0618E-005
 575.50  7.8018E-005
 576.00  7.4946E-005
 576.50  7.2279E-005
 577.00  6.9764E-005
 577.50  6.7318E-005
 578.00  6.5179E-005
 578.50  6.3493E-005
 579.00  6.1811E-005
 579.50  6.0107E-005
 580.00  5.8661E-005
 580.50  5.6775E-005
 581.00  5.4924E-005
 581.50  5.3617E-005
 582.00  5.2494E-005
 582.50  5.1152E-005
 583.00  5.0183E-005
 583.50  4.9086E-005
 584.00  4.7763E-005
 584.50  4.6480E-005
 585.00  4.5095E-005
 585.50  4.3942E-005
 586.00  4.2740E-005
 586.50  4.1943E-005
 587.00  4.1250E-005
 587.50  4.1073E-005
 588.00  4.0294E-005
 588.50  3.9744E-005
 589.00  3.8935E-005
 589.50  3.8042E-005
 590.00  3.7166E-005
 590.50  3.6346E-005
 591.00  3.5458E-005
 591.50  3.4377E-005
 592.00  3.3270E-005
 592.50  3.2241E-005
 593.00  3.0716E-005
 593.50  2.9440E-005
 594.00  2.8401E-005
 594.50  2.7018E-005
 595.00  2.5874E-005
 595.50  2.5369E-005
 596.00  2.4666E-005
 596.50  2.3995E-005
 597.00  2.3634E-005
 597.50  2.3039E-005
 598.00  2.2346E-005
 598.50  2.1946E-005
 599.00  2.1058E-005
 599.50  2.0546E-005
 600.00  1.9639E-005
 600.50  1.8691E-005
 601.00  1.7857E-005
 601.50  1.7059E-005
 602.00  1.6187E-005
 602.50  1.5700E-005
 603.00  1.5305E-005
 603.50  1.5004E-005
 604.00  1.4829E-005
 604.50  1.4413E-005
 605.00  1.3633E-005
 605.50  1.3353E-005
 606.00  1.2912E-005
 606.50  1.2832E-005
 607.00  1.3067E-005
 607.50  1.3498E-005
 608.00  1.4186E-005
 608.50  1.5012E-005
 609.00  1.5293E-005
 609.50  1.5077E-005
 610.00  1.4073E-005
 610.50  1.2577E-005
 611.00  1.1326E-005
 611.50  1.0846E-005
 612.00  1.0333E-005
 612.50  1.0829E-005
 613.00  1.1467E-005
 613.50  1.1851E-005
 614.00  1.2184E-005
 614.50  1.2014E-005
 615.00  1.1255E-005
 615.50  1.0301E-005
 616.00  9.3225E-006
 616.50  8.8072E-006
 617.00  8.5111E-006
 617.50  8.7977E-006
 618.00  9.6016E-006
 618.50  1.0478E-005
 619.00  1.1101E-005
 619.50  1.1613E-005
 620.00  1.2062E-005
 620.50  1.1871E-005
 621.00  1.1340E-005
 621.50  1.0920E-005
 622.00  1.0021E-005
 622.50  8.4563E-006
 623.00  7.8807E-006
 623.50  7.9243E-006
 624.00  8.2429E-006
 624.50  8.7477E-006
 625.00  9.1109E-006
 625.50  9.3295E-006
 626.00  9.0142E-006
 626.50  8.7031E-006
 627.00  8.8067E-006
 627.50  8.9461E-006
 628.00  8.9326E-006
 628.50  9.2300E-006
 629.00  9.2186E-006
 629.50  8.7631E-006
 630.00  8.5843E-006
 630.50  8.0269E-006
 631.00  7.9460E-006
 631.50  8.9196E-006
 632.00  9.9871E-006
 632.50  1.0289E-005
 633.00  1.0780E-005
 633.50  1.0357E-005
 634.00  9.3023E-006
 634.50  8.8908E-006
 635.00  9.0502E-006
 635.50  8.5177E-006
 636.00  8.6650E-006
 636.50  8.2191E-006
 637.00  7.5884E-006
 637.50  7.4726E-006
 638.00  7.2826E-006
 638.50  6.9972E-006
 639.00  7.0100E-006
 639.50  7.0029E-006
 640.00  7.0993E-006
 640.50  8.3043E-006
 641.00  9.2994E-006
 641.50  1.0198E-005
 642.00  1.0968E-005
 642.50  1.0975E-005
 643.00  1.0782E-005
 643.50  1.0549E-005
 644.00  9.6440E-006
 644.50  9.4726E-006
 645.00  9.2812E-006
 645.50  8.9852E-006
 646.00  9.4579E-006
 646.50  9.6318E-006
 647.00  9.3997E-006
 647.50  9.6767E-006
 648.00  9.9703E-006
 648.50  9.9055E-006
 649.00  1.0316E-005
 649.50  9.5120E-006
 650.00  7.8449E-006
 650.50  6.3363E-006
 651.00  6.2925E-006
 651.50  5.2433E-006
 652.00  6.4678E-006
 652.50  7.6407E-006
 653.00  8.2044E-006
 653.50  8.7558E-006
 654.00  9.3504E-006
 654.50  8.8698E-006
 655.00  8.3082E-006
 655.50  7.8403E-006
 656.00  6.8632E-006
 656.50  6.3727E-006
 657.00  6.1000E-006
 657.50  6.0513E-006
 658.00  6.1254E-006
 658.50  6.5590E-006
 659.00  6.4848E-006
 659.50  6.4919E-006
 660.00  6.1754E-006
 660.50  6.2077E-006
 661.00  6.6243E-006
 661.50  7.3689E-006
 662.00  7.8180E-006
 662.50  7.5088E-006
 663.00  7.2584E-006
 663.50  6.6289E-006
 664.00  6.1233E-006
 664.50  6.0844E-006
 665.00  6.2675E-006
 665.50  6.6117E-006
 666.00  6.8741E-006
 666.50  7.2815E-006
 667.00  7.8640E-006
 667.50  8.2552E-006
 668.00  8.5358E-006
 668.50  8.4735E-006
 669.00  8.5134E-006
 669.50  8.4226E-006
 670.00  8.4868E-006
 670.50  8.6200E-006
 671.00  9.2643E-006
 671.50  9.0437E-006
 672.00  9.5200E-006
 672.50  1.0123E-005
 673.00  1.0199E-005
 673.50  1.0227E-005
 674.00  1.0053E-005
 674.50  9.3782E-006
 675.00  8.4679E-006
 675.50  7.8199E-006
 676.00  7.8568E-006
 676.50  8.6025E-006
 677.00  8.5530E-006
 677.50  9.3420E-006
 678.00  9.9330E-006
 678.50  1.0135E-005
 679.00  9.5683E-006
 679.50  8.8823E-006
 680.00  7.8268E-006
 680.50  7.4060E-006
 681.00  7.2813E-006
 681.50  7.5106E-006
 682.00  8.5847E-006
 682.50  9.2349E-006
 683.00  9.1145E-006
 683.50  9.8468E-006
 684.00  1.0778E-005
 684.50  1.1136E-005
 685.00  1.2038E-005
 685.50  1.2330E-005
 686.00  1.1228E-005
 686.50  9.3588E-006
 687.00  7.3286E-006
 687.50  4.7453E-006
 688.00  3.4642E-006
 688.50  2.4545E-006
 689.00  1.5688E-006
 689.50  1.3723E-006
 690.00  7.9415E-007
 690.50  1.2116E-007
 691.00  0.0000E+000
 691.50  8.0951E-008
 692.00  5.9634E-007
 692.50  2.2619E-006
 693.00  2.6733E-006
 693.50  3.0860E-006
 694.00  3.0622E-006
 694.50  2.7064E-006
 695.00  2.7114E-006
 695.50  3.6269E-006
 696.00  4.3675E-006
 696.50  4.7702E-006
 697.00  5.3776E-006
 697.50  5.7766E-006
 698.00  5.8429E-006
 698.50  6.5442E-006
 699.00  8.0060E-006
 699.50  8.4684E-006
 700.00  8.9580E-006
 700.50  8.3056E-006
 701.00  6.8028E-006
 701.50  4.4716E-006
 702.00  2.6384E-006
 702.50  1.8932E-006
 703.00  2.0073E-006
 703.50  2.6342E-006
 704.00  4.2102E-006
 704.50  5.6917E-006
 705.00  5.7588E-006
 705.50  5.6485E-006
 706.00  6.2005E-006
 706.50  4.9962E-006
 707.00  3.9815E-006
 707.50  3.5273E-006
 708.00  2.4958E-006
 708.50  1.5015E-006
 709.00  2.3258E-006
 709.50  2.6638E-006
 710.00  3.1296E-006
 710.50  4.1624E-006
 711.00  4.1284E-006
 711.50  3.3593E-006
 712.00  3.6044E-006
 712.50  2.7712E-006
 713.00  1.3705E-006
 713.50  1.3913E-006
 714.00  1.3380E-006
 714.50  2.1562E-006
 715.00  4.5911E-006
 715.50  6.3752E-006
 716.00  7.1685E-006
 716.50  7.3933E-006
 717.00  6.6186E-006
 717.50  6.3137E-006
 718.00  6.5934E-006
 718.50  7.1241E-006
 719.00  8.5104E-006
 719.50  9.8344E-006
 720.00  1.0151E-005
 720.50  1.1104E-005
 721.00  1.1677E-005
 721.50  1.1528E-005
 722.00  1.0481E-005
 722.50  9.6927E-006
 723.00  8.1262E-006
 723.50  7.8864E-006
 724.00  8.9648E-006
 724.50  1.1081E-005
 725.00  1.2924E-005
 725.50  1.2931E-005
 726.00  1.2109E-005
 726.50  1.0580E-005
 727.00  7.9536E-006
 727.50  5.9606E-006
 728.00  5.2110E-006
 728.50  4.2445E-006
 729.00  3.1476E-006
 729.50  3.1162E-006
 730.00  2.3009E-006
 730.50  5.8061E-007
 731.00  4.3122E-009
 731.50  0.0000E+000
 732.00  0.0000E+000
 732.50  2.6006E-008
 733.00  3.0813E-007
 733.50  1.0396E-006
 734.00  1.8391E-006
 734.50  2.6008E-006
 735.00  2.8215E-006
 735.50  2.1317E-006
 736.00  6.5428E-007
 736.50  0.0000E+000
 737.00  0.0000E+000
 737.50  0.0000E+000
 738.00  1.1999E-006
 738.50  4.2174E-006
 739.00  8.1838E-006
 739.50  1.1121E-005
 740.00  1.5761E-005
 740.50  1.7830E-005
 741.00  1.9076E-005
 741.50  1.7466E-005
 742.00  1.5902E-005
 742.50  1.4177E-005
 743.00  1.2805E-005
 743.50  1.1190E-005
 744.00  9.6058E-006
 744.50  7.8956E-006
 745.00  5.0174E-006
 745.50  2.9895E-006
 746.00  1.3005E-006
 746.50  6.9250E-007
 747.00  1.3291E-006
 747.50  2.9188E-006
 748.00  3.1991E-006
 748.50  3.5374E-006
 749.00  4.2908E-006
 749.50  4.5919E-006
 750.00  4.7159E-006
 750.50  6.0622E-006
 751.00  8.5314E-006
 751.50  9.2579E-006
 752.00  1.0564E-005
 752.50  1.1113E-005
 753.00  1.0343E-005
 753.50  1.0173E-005
 754.00  9.4971E-006
 754.50  9.0351E-006
 755.00  8.2941E-006
 755.50  6.2361E-006
 756.00  4.0475E-006
 756.50  0.0000E+000
 757.00  0.0000E+000
 757.50  0.0000E+000
 758.00  0.0000E+000
 758.50  2.1233E-007
 759.00  1.1368E-006
 759.50  1.9358E-006
 760.00  1.7663E-006
 760.50  7.1349E-007
 761.00  0.0000E+000
 761.50  1.3152E-006
 762.00  4.7274E-006
 762.50  7.6429E-006
 763.00  9.8920E-006
 763.50  1.0761E-005
 764.00  1.0766E-005
 764.50  1.0322E-005
 765.00  1.0881E-005
 765.50  1.2334E-005
 766.00  1.2804E-005
 766.50  1.1820E-005
 767.00  1.0353E-005
 767.50  7.9790E-006
 768.00  5.2213E-006
 768.50  3.1102E-006
 769.00  1.9236E-006
 769.50  1.9269E-006
 770.00  2.4188E-006
 770.50  3.4726E-006
 771.00  4.2535E-006
 771.50  6.2878E-006
 772.00  6.0473E-006
 772.50  6.2692E-006
 773.00  6.6162E-006
 773.50  8.4510E-006
 774.00  8.1129E-006
 774.50  9.8307E-006
 775.00  1.1428E-005
 775.50  1.2225E-005
 776.00  1.0348E-005
 776.50  8.8214E-006
 777.00  7.4423E-006
 777.50  5.5954E-006
 778.00  3.7774E-006
 778.50  3.5240E-006
 779.00  2.9408E-006
 779.50  1.6191E-006
 780.00  1.4784E-006
 780.50  1.4806E-006
 781.00  1.2222E-006
 781.50  2.8813E-006
 782.00  3.5059E-006
 782.50  2.9413E-006
 783.00  1.0659E-006
 783.50  0.0000E+000
 784.00  0.0000E+000
 784.50  0.0000E+000
 785.00  5.2314E-007
 785.50  2.7660E-006
 786.00  4.5507E-006
 786.50  4.9918E-006
 787.00  3.8891E-006
 787.50  2.2761E-006
 788.00  1.8515E-006
 788.50  3.2100E-006
 789.00  4.7454E-006
 789.50  5.7943E-006
 790.00  6.9599E-006
 790.50  8.5218E-006
 791.00  8.9337E-006
 791.50  8.2162E-006
 792.00  9.1196E-006
 792.50  9.3835E-006
 793.00  8.6422E-006
 793.50  9.1562E-006
 794.00  8.9440E-006
 794.50  7.6708E-006
 795.00  6.7296E-006
 795.50  5.6637E-006
 796.00  4.8165E-006
 796.50  5.6879E-006
 797.00  7.1720E-006
 797.50  8.8204E-006
 798.00  9.7503E-006
 798.50  1.0575E-005
 799.00  1.0744E-005
 799.50  1.0802E-005
 800.00  9.4239E-006
 800.50  7.7886E-006
 801.00  4.8660E-006
 801.50  1.9150E-006
 802.00  4.1967E-007
 802.50  1.5887E-006
 803.00  5.8410E-006
 803.50  1.0142E-005
 804.00  1.3249E-005
 804.50  1.4501E-005
 805.00  1.3952E-005
 805.50  1.1611E-005
 806.00  1.0076E-005
 806.50  8.7284E-006
 807.00  7.9928E-006
 807.50  7.4761E-006
 808.00  6.3008E-006
 808.50  5.0336E-006
 809.00  5.0950E-006
 809.50  4.1029E-006
 810.00  3.2134E-006
 810.50  2.0087E-006
 811.00  1.3434E-006
 811.50  2.4058E-009
 812.00  7.9628E-007
 812.50  1.7084E-006
 813.00  2.9098E-006
 813.50  4.5022E-006
 814.00  4.0570E-006
 814.50  3.3819E-006
 815.00  2.7358E-006
 815.50  2.0710E-006
 816.00  2.4507E-006
 816.50  3.9874E-006
 817.00  6.0996E-006
 817.50  7.9082E-006
 818.00  7.9812E-006
 818.50  7.8674E-006
 819.00  7.7672E-006
 819.50  6.8283E-006
 820.00  6.5756E-006
 820.50  6.6490E-006
 821.00  5.3378E-006
 821.50  5.0007E-006
 822.00  5.6354E-006
 822.50  4.3620E-006
 823.00  3.1570E-006
 823.50  2.4418E-006
 824.00  1.9870E-007
 824.50  0.0000E+000
 825.00  1.7083E-007
 825.50  1.1768E-006
 826.00  3.4069E-006
 826.50  5.9437E-006
 827.00  8.7471E-006
 827.50  1.0801E-005
 828.00  1.1032E-005
 828.50  9.6598E-006
 829.00  6.1782E-006
 829.50  3.0305E-006
 830.00  3.6484E-006
 830.50  5.7170E-006
 831.00  6.9072E-006
 831.50  6.8657E-006
 832.00  6.3410E-006
 832.50  3.8715E-006
 833.00  2.1547E-007
 833.50  6.9850E-007
 834.00  2.3902E-006
 834.50  2.9263E-006
 835.00  4.6789E-006
 835.50  6.5591E-006
 836.00  6.8455E-006
 836.50  8.1641E-006
 837.00  1.0265E-005
 837.50  1.3947E-005
 838.00  1.7854E-005
 838.50  2.0334E-005
 839.00  2.1832E-005
 839.50  2.1683E-005
 840.00  1.7779E-005
 840.50  1.3423E-005
 841.00  8.8951E-006
 841.50  6.1513E-006
 842.00  3.0849E-006
 842.50  2.9935E-006
 843.00  2.1763E-006
 843.50  3.1389E-006
 844.00  0.0000E+000
 844.50  0.0000E+000
 845.00  0.0000E+000
 845.50  0.0000E+000
 846.00  0.0000E+000
 846.50  2.2668E-007
 847.00  1.9829E-006
 847.50  4.9915E-006
 848.00  6.4344E-006
 848.50  5.6011E-006
 849.00  3.9132E-006
 849.50  3.0425E-006
 850.00  3.3197E-006
 850.50  5.0567E-006
 851.00  7.7699E-006
 851.50  9.0781E-006
 852.00  8.2632E-006
 852.50  8.4606E-006
 853.00  7.3120E-006
 853.50  7.1732E-006
 854.00  5.7891E-006
 854.50  3.6748E-006
 855.00  1.0624E-006
 855.50  2.2767E-007
 856.00  0.0000E+000
 856.50  0.0000E+000
 857.00  0.0000E+000
 857.50  0.0000E+000
 858.00  0.0000E+000
 858.50  0.0000E+000
 859.00  0.0000E+000
 859.50  0.0000E+000
 860.00  0.0000E+000
 860.50  0.0000E+000
 861.00  7.6833E-007
 861.50  3.2246E-006
 862.00  6.6046E-006
 862.50  1.0494E-005
 863.00  1.4892E-005
 863.50  1.9758E-005
 864.00  2.4700E-005
 864.50  2.8788E-005
 865.00  3.0689E-005
 865.50  3.1456E-005
 866.00  2.9675E-005
 866.50  2.7552E-005
 867.00  2.2855E-005
 867.50  2.0833E-005
 868.00  1.8517E-005
 868.50  1.7645E-005
 869.00  1.6359E-005
 869.50  1.6183E-005
 870.00  1.6887E-005
 870.50  2.0237E-005
 871.00  2.3308E-005
 871.50  2.4709E-005
 872.00  2.7487E-005
 872.50  3.2035E-005
 873.00  3.4236E-005
 873.50  3.2431E-005
 874.00  3.2592E-005
 874.50  3.3481E-005
 875.00  2.8877E-005
 875.50  2.6663E-005
 876.00  2.9141E-005
 876.50  2.5375E-005
 877.00  1.9324E-005
 877.50  1.8176E-005
 878.00  1.4442E-005
 878.50  4.7194E-006
 879.00  0.0000E+000
 879.50  0.0000E+000
 880.00  0.0000E+000
 880.50  0.0000E+000
 881.00  0.0000E+000
 881.50  2.4915E-006
 882.00  9.9325E-006
 882.50  1.6691E-005
 883.00  2.2277E-005
 883.50  2.3689E-005
 884.00  2.2108E-005
 884.50  1.7568E-005
 885.00  1.2111E-005
 885.50  9.1521E-006
 886.00  1.0521E-005
 886.50  1.3512E-005
 887.00  2.3549E-005
 887.50  3.3406E-005
 888.00  4.0861E-005
 888.50  4.4943E-005
 889.00  4.8481E-005
 889.50  4.6868E-005
 890.00  4.1601E-005
 890.50  3.0378E-005
 891.00  1.6897E-005
 891.50  5.6315E-006
 892.00  0.0000E+000
 892.50  0.0000E+000
 893.00  0.0000E+000
 893.50  0.0000E+000
 894.00  0.0000E+000
 894.50  1.2640E-006
 895.00  5.4821E-006
 895.50  1.0337E-005
 896.00  1.4909E-005
 896.50  1.7500E-005
 897.00  1.8280E-005
 897.50  2.1318E-005
 898.00  2.3916E-005
 898.50  2.7207E-005
 899.00  2.8647E-005
 899.50  2.9255E-005
 900.00  2.4511E-005
 900.50  2.2120E-005
 901.00  2.4743E-005
 901.50  2.9066E-005
 902.00  3.1857E-005
 902.50  3.6790E-005
 903.00  4.1341E-005
 903.50  4.1139E-005
 904.00  4.3015E-005
 904.50  4.4178E-005
 905.00  4.1835E-005
 905.50  3.5482E-005
 906.00  3.1539E-005
 906.50  2.6039E-005
 907.00  2.1754E-005
 907.50  2.0398E-005
 908.00  2.1948E-005
 908.50  1.9597E-005
 909.00  1.8361E-005
 909.50  1.6860E-005
 910.00  1.0979E-005
 910.50  4.7040E-006
 911.00  1.2354E-006
 911.50  4.9566E-007
 912.00  3.9983E-007
 912.50  1.1570E-006
 913.00  4.6412E-007
 913.50  1.1833E-006
 914.00  3.3750E-007
 914.50  4.7984E-007
 915.00  7.8801E-006
 915.50  2.0902E-005
 916.00  3.2016E-005
 916.50  3.3934E-005
 917.00  3.5581E-005
 917.50  2.8863E-005
 918.00  1.7387E-005
 918.50  1.0178E-005
 919.00  6.2075E-006
 919.50  0.0000E+000
 920.00  0.0000E+000
 920.50  0.0000E+000
 921.00  0.0000E+000
 921.50  0.0000E+000
 922.00  0.0000E+000
 922.50  0.0000E+000
 923.00  0.0000E+000
 923.50  0.0000E+000
 924.00  0.0000E+000
 924.50  2.4878E-006
 925.00  5.0277E-006
 925.50  6.2774E-006
 926.00  1.0085E-005
 926.50  1.4726E-005
 927.00  1.4816E-005
 927.50  1.8457E-005
 928.00  2.3381E-005
 928.50  1.8883E-005
 929.00  1.4096E-005
 929.50  4.1997E-006
 930.00  2.8715E-007
 930.50  0.0000E+000
 931.00  0.0000E+000
 931.50  0.0000E+000
 932.00  0.0000E+000
 932.50  0.0000E+000
 933.00  0.0000E+000
 933.50  0.0000E+000
 934.00  0.0000E+000
 934.50  0.0000E+000
 935.00  0.0000E+000
 935.50  0.0000E+000
 936.00  0.0000E+000
 936.50  0.0000E+000
 937.00  0.0000E+000
 937.50  0.0000E+000
 938.00  0.0000E+000
 938.50  0.0000E+000
 939.00  0.0000E+000
 939.50  0.0000E+000
 940.00  1.7239E-007
 940.50  8.5017E-006
 941.00  2.0532E-005
 941.50  3.1777E-005
 942.00  4.6412E-005
 942.50  4.8440E-005
 943.00  4.4205E-005
 943.50  4.4371E-005
 944.00  4.4528E-005
 944.50  3.6288E-005
 945.00  4.3096E-005
 945.50  5.8536E-005
 946.00  6.6994E-005
 946.50  7.0617E-005
 947.00  7.7702E-005
 947.50  8.3768E-005
 948.00  8.1630E-005
 948.50  8.0595E-005
 949.00  7.9466E-005
 949.50  7.4022E-005
 950.00  6.7221E-005
 950.50  5.1579E-005
 951.00  4.7022E-005
 951.50  3.8028E-005
 952.00  3.4224E-005
 952.50  3.8112E-005
 953.00  4.4921E-005
 953.50  4.2301E-005
 954.00  5.4192E-005
 954.50  6.3510E-005
 955.00  6.9168E-005
 955.50  7.7243E-005
 956.00  7.6610E-005
 956.50  6.6843E-005
 957.00  5.8406E-005
 957.50  5.1540E-005
 958.00  4.1781E-005
 958.50  3.6047E-005
 959.00  2.6880E-005
 959.50  1.0920E-005
 960.00  1.4621E-006
 960.50  0.0000E+000
 961.00  0.0000E+000
 961.50  1.2269E-006
 962.00  1.4093E-005
 962.50  2.1818E-005
 963.00  1.8409E-005
 963.50  1.0346E-005
 964.00  1.7575E-006
 964.50  0.0000E+000
 965.00  0.0000E+000
 965.50  0.0000E+000
 966.00  1.4403E-006
 966.50  1.2744E-005
 967.00  2.2149E-005
 967.50  2.3157E-005
 968.00  2.7156E-005
 968.50  2.5979E-005
 969.00  2.2715E-005
 969.50  2.0269E-005
 970.00  1.8537E-005
 970.50  2.5329E-005
 971.00  4.9323E-005
 971.50  7.9036E-005
 972.00  1.1301E-004
 972.50  1.5472E-004
 973.00  1.7217E-004
 973.50  1.7033E-004
 974.00  1.7325E-004
 974.50  1.7196E-004
 975.00  1.5312E-004
 975.50  1.4090E-004
 976.00  1.2017E-004
 976.50  1.0244E-004
 977.00  7.8161E-005
 977.50  7.1473E-005
 978.00  5.2252E-005
 978.50  4.2536E-005
 979.00  1.8801E-005
 979.50  1.7828E-006
 980.00  0.0000E+000
 980.50  0.0000E+000
 981.00  0.0000E+000
 981.50  2.0799E-006
 982.00  1.6536E-005
 982.50  9.3971E-006
 983.00  1.4596E-005
 983.50  0.0000E+000
 984.00  0.0000E+000
 984.50  0.0000E+000
 985.00  0.0000E+000
 985.50  0.0000E+000
 986.00  0.0000E+000
 986.50  0.0000E+000
 987.00  0.0000E+000
 987.50  0.0000E+000
 988.00  0.0000E+000
 988.50  0.0000E+000
 989.00  0.0000E+000
 989.50  0.0000E+000
 990.00  0.0000E+000
 990.50  0.0000E+000
 991.00  0.0000E+000
 991.50  0.0000E+000
 992.00  0.0000E+000
 992.50  0.0000E+000
 993.00  0.0000E+000
 993.50  0.0000E+000
 994.00  0.0000E+000
 994.50  0.0000E+000
 995.00  0.0000E+000
 995.50  0.0000E+000
 996.00  0.0000E+000
 996.50  0.0000E+000
 997.00  0.0000E+000
 997.50  0.0000E+000
 998.00  0.0000E+000
 998.50  0.0000E+000
 999.00  0.0000E+000
 999.50  0.0000E+000
1000.00  0.0000E+000
1000.50  0.0000E+000
1001.00  0.0000E+000
1001.50  0.0000E+000
1002.00  0.0000E+000
1002.50  0.0000E+000
1003.00  0.0000E+000
1003.50  0.0000E+000
1004.00  0.0000E+000
1004.50  0.0000E+000
1005.00  0.0000E+000
1005.50  0.0000E+000
1006.00  0.0000E+000
1006.50  0.0000E+000
1007.00  0.0000E+000
1007.50  0.0000E+000
1008.00  0.0000E+000
1008.50  0.0000E+000
1009.00  0.0000E+000
1009.50  0.0000E+000
1010.00  0.0000E+000
1010.50  0.0000E+000
1011.00  0.0000E+000
1011.50  0.0000E+000
1012.00  0.0000E+000
1012.50  0.0000E+000
1013.00  0.0000E+000
1013.50  0.0000E+000
1014.00  0.0000E+000
1014.50  0.0000E+000
1015.00  0.0000E+000
1015.50  0.0000E+000
1016.00  0.0000E+000
1016.50  0.0000E+000
1017.00  0.0000E+000
1017.50  0.0000E+000
1018.00  0.0000E+000
1018.50  0.0000E+000
1019.00  0.0000E+000
1019.50  0.0000E+000
1020.00  0.0000E+000
1020.50  0.0000E+000
1021.00  0.0000E+000
1021.50  0.0000E+000
1022.00  0.0000E+000
1022.50  0.0000E+000
1023.00  0.0000E+000
1023.50  0.0000E+000
1024.00  0.0000E+000
1024.50  0.0000E+000
1025.00  0.0000E+000
1025.50  0.0000E+000
1026.00  0.0000E+000
1026.50  0.0000E+000
1027.00  0.0000E+000
1027.50  0.0000E+000
1028.00  0.0000E+000
1028.50  0.0000E+000
1029.00  0.0000E+000
1029.50  0.0000E+000
1030.00  0.0000E+000
1030.50  0.0000E+000
1031.00  0.0000E+000
1031.50  0.0000E+000
1032.00  0.0000E+000
1032.50  0.0000E+000
1033.00  0.0000E+000
1033.50  0.0000E+000
1034.00  0.0000E+000
1034.50  0.0000E+000
1035.00  0.0000E+000
1035.50  0.0000E+000
1036.00  0.0000E+000
1036.50  0.0000E+000
1037.00  0.0000E+000
1037.50  0.0000E+000
1038.00  0.0000E+000
1038.50  0.0000E+000
1039.00  0.0000E+000
1039.50  0.0000E+000
1040.00  0.0000E+000
1040.50  0.0000E+000
1041.00  0.0000E+000
1041.50  0.0000E+000
1042.00  0.0000E+000
1042.50  0.0000E+000
1043.00  0.0000E+000
1043.50  0.0000E+000
1044.00  0.0000E+000
1044.50  0.0000E+000
1045.00  0.0000E+000
1045.50  0.0000E+000
1046.00  0.0000E+000
1046.50  0.0000E+000
1047.00  0.0000E+000
1047.50  0.0000E+000
1048.00  0.0000E+000
1048.50  0.0000E+000
1049.00  0.0000E+000
1049.50  0.0000E+000
1050.00  0.0000E+000
1050.50  0.0000E+000
1051.00  0.0000E+000
1051.50  0.0000E+000
1052.00  0.0000E+000
1052.50  0.0000E+000
1053.00  0.0000E+000
1053.50  0.0000E+000
1054.00  0.0000E+000
1054.50  0.0000E+000
1055.00  0.0000E+000
1055.50  0.0000E+000
1056.00  0.0000E+000
1056.50  0.0000E+000
1057.00  0.0000E+000
1057.50  0.0000E+000
1058.00  0.0000E+000
1058.50  0.0000E+000
1059.00  0.0000E+000
1059.50  0.0000E+000
1060.00  0.0000E+000
1060.50  0.0000E+000
1061.00  0.0000E+000
1061.50  0.0000E+000
1062.00  0.0000E+000
1062.50  0.0000E+000
1063.00  0.0000E+000
1063.50  0.0000E+000
1064.00  0.0000E+000
1064.50  0.0000E+000
1065.00  0.0000E+000
1065.50  0.0000E+000
1066.00  0.0000E+000
1066.50  0.0000E+000
1067.00  0.0000E+000
1067.50  0.0000E+000
1068.00  0.0000E+000
1068.50  0.0000E+000
1069.00  0.0000E+000
1069.50  0.0000E+000
1070.00  0.0000E+000
1070.50  0.0000E+000
1071.00  0.0000E+000
1071.50  0.0000E+000
1072.00  0.0000E+000
1072.50  0.0000E+000
1073.00  0.0000E+000
1073.50  0.0000E+000
1074.00  0.0000E+000
1074.50  0.0000E+000
1075.00  0.0000E+000
1075.50  0.0000E+000
1076.00  0.0000E+000
1076.50  0.0000E+000
1077.00  0.0000E+000
1077.50  0.0000E+000
1078.00  0.0000E+000
1078.50  0.0000E+000
1079.00  0.0000E+000
1079.50  0.0000E+000
1080.00  0.0000E+000
1080.50  0.0000E+000
1081.00  0.0000E+000
1081.50  0.0000E+000
1082.00  0.0000E+000
1082.50  0.0000E+000
1083.00  0.0000E+000
1083.50  0.0000E+000
1084.00  0.0000E+000
1084.50  0.0000E+000
1085.00  0.0000E+000
1085.50  0.0000E+000
1086.00  0.0000E+000
1086.50  0.0000E+000
1087.00  0.0000E+000
1087.50  0.0000E+000
1088.00  0.0000E+000
1088.50  0.0000E+000
1089.00  0.0000E+000
1089.50  0.0000E+000
1090.00  0.0000E+000
1090.50  0.0000E+000
1091.00  0.0000E+000
1091.50  0.0000E+000
1092.00  0.0000E+000
1092.50  0.0000E+000
1093.00  0.0000E+000
1093.50  0.0000E+000
1094.00  0.0000E+000
1094.50  0.0000E+000
1095.00  0.0000E+000
1095.50  0.0000E+000
1096.00  0.0000E+000
1096.50  0.0000E+000
1097.00  0.0000E+000
1097.50  0.0000E+000
1098.00  0.0000E+000
1098.50  0.0000E+000
1099.00  0.0000E+000
1099.50  0.0000E+000
1100.00  0.0000E+000
1100.50  0.0000E+000
1101.00  0.0000E+000
1101.50  0.0000E+000
1102.00  0.0000E+000
1102.50  0.0000E+000
1103.00  0.0000E+000
1103.50  0.0000E+000
1104.00  0.0000E+000
1104.50  0.0000E+000
1105.00  0.0000E+000
1105.50  0.0000E+000
1106.00  0.0000E+000
1106.50  0.0000E+000
1107.00  0.0000E+000
1107.50  0.0000E+000
1108.00  0.0000E+000
1108.50  0.0000E+000
1109.00  0.0000E+000
1109.50  0.0000E+000
1110.00  0.0000E+000
1110.50  0.0000E+000
1111.00  0.0000E+000
1111.50  0.0000E+000
1112.00  0.0000E+000
1112.50  0.0000E+000
1113.00  0.0000E+000
1113.50  0.0000E+000
1114.00  0.0000E+000
1114.50  0.0000E+000
1115.00  0.0000E+000
1115.50  0.0000E+000
1116.00  0.0000E+000
1116.50  0.0000E+000
1117.00  0.0000E+000
1117.50  0.0000E+000
1118.00  0.0000E+000
1118.50  0.0000E+000
1119.00  0.0000E+000
1119.50  0.0000E+000
1120.00  0.0000E+000
1120.50  0.0000E+000
1121.00  0.0000E+000
1121.50  0.0000E+000
1122.00  0.0000E+000
1122.50  0.0000E+000
1123.00  0.0000E+000
1123.50  0.0000E+000
1124.00  0.0000E+000
1124.50  0.0000E+000
1125.00  0.0000E+000
1125.50  0.0000E+000
1126.00  0.0000E+000
1126.50  0.0000E+000
1127.00  0.0000E+000
1127.50  0.0000E+000
: 6
