" File: 160128_ReferenceSpectra\10.IRR
" RAD->  Wave:366.44nm  Pix:434  Val:  0.000  Time:250ms  Avg:5  Sm:1  Sg:1  Tc:off  SNAP  Xt:1  Ch:1  Xtrig wnmcal >RAD-IS6.CAL
 180.00  0.0000E+000
 180.50  0.0000E+000
 181.00  0.0000E+000
 181.50  0.0000E+000
 182.00  0.0000E+000
 182.50  0.0000E+000
 183.00  0.0000E+000
 183.50  0.0000E+000
 184.00  0.0000E+000
 184.50  0.0000E+000
 185.00  0.0000E+000
 185.50  0.0000E+000
 186.00  0.0000E+000
 186.50  0.0000E+000
 187.00  0.0000E+000
 187.50  0.0000E+000
 188.00  0.0000E+000
 188.50  0.0000E+000
 189.00  0.0000E+000
 189.50  0.0000E+000
 190.00  0.0000E+000
 190.50  0.0000E+000
 191.00  0.0000E+000
 191.50  0.0000E+000
 192.00  0.0000E+000
 192.50  0.0000E+000
 193.00  0.0000E+000
 193.50  0.0000E+000
 194.00  0.0000E+000
 194.50  0.0000E+000
 195.00  0.0000E+000
 195.50  0.0000E+000
 196.00  0.0000E+000
 196.50  0.0000E+000
 197.00  0.0000E+000
 197.50  0.0000E+000
 198.00  0.0000E+000
 198.50  0.0000E+000
 199.00  0.0000E+000
 199.50  0.0000E+000
 200.00  0.0000E+000
 200.50  0.0000E+000
 201.00  0.0000E+000
 201.50  0.0000E+000
 202.00  0.0000E+000
 202.50  0.0000E+000
 203.00  0.0000E+000
 203.50  0.0000E+000
 204.00  0.0000E+000
 204.50  0.0000E+000
 205.00  0.0000E+000
 205.50  0.0000E+000
 206.00  0.0000E+000
 206.50  0.0000E+000
 207.00  0.0000E+000
 207.50  0.0000E+000
 208.00  0.0000E+000
 208.50  0.0000E+000
 209.00  0.0000E+000
 209.50  0.0000E+000
 210.00  0.0000E+000
 210.50  0.0000E+000
 211.00  0.0000E+000
 211.50  0.0000E+000
 212.00  0.0000E+000
 212.50  0.0000E+000
 213.00  0.0000E+000
 213.50  0.0000E+000
 214.00  0.0000E+000
 214.50  0.0000E+000
 215.00  0.0000E+000
 215.50  0.0000E+000
 216.00  0.0000E+000
 216.50  0.0000E+000
 217.00  0.0000E+000
 217.50  0.0000E+000
 218.00  0.0000E+000
 218.50  0.0000E+000
 219.00  0.0000E+000
 219.50  0.0000E+000
 220.00  0.0000E+000
 220.50  0.0000E+000
 221.00  0.0000E+000
 221.50  0.0000E+000
 222.00  0.0000E+000
 222.50  0.0000E+000
 223.00  0.0000E+000
 223.50  0.0000E+000
 224.00  0.0000E+000
 224.50  0.0000E+000
 225.00  0.0000E+000
 225.50  0.0000E+000
 226.00  0.0000E+000
 226.50  0.0000E+000
 227.00  0.0000E+000
 227.50  0.0000E+000
 228.00  0.0000E+000
 228.50  0.0000E+000
 229.00  0.0000E+000
 229.50  0.0000E+000
 230.00  0.0000E+000
 230.50  0.0000E+000
 231.00  0.0000E+000
 231.50  0.0000E+000
 232.00  0.0000E+000
 232.50  0.0000E+000
 233.00  0.0000E+000
 233.50  0.0000E+000
 234.00  0.0000E+000
 234.50  0.0000E+000
 235.00  0.0000E+000
 235.50  0.0000E+000
 236.00  0.0000E+000
 236.50  0.0000E+000
 237.00  0.0000E+000
 237.50  0.0000E+000
 238.00  0.0000E+000
 238.50  0.0000E+000
 239.00  0.0000E+000
 239.50  0.0000E+000
 240.00  0.0000E+000
 240.50  0.0000E+000
 241.00  0.0000E+000
 241.50  0.0000E+000
 242.00  0.0000E+000
 242.50  0.0000E+000
 243.00  0.0000E+000
 243.50  0.0000E+000
 244.00  0.0000E+000
 244.50  0.0000E+000
 245.00  0.0000E+000
 245.50  0.0000E+000
 246.00  0.0000E+000
 246.50  0.0000E+000
 247.00  0.0000E+000
 247.50  0.0000E+000
 248.00  0.0000E+000
 248.50  0.0000E+000
 249.00  0.0000E+000
 249.50  0.0000E+000
 250.00  0.0000E+000
 250.50  0.0000E+000
 251.00  0.0000E+000
 251.50  0.0000E+000
 252.00  0.0000E+000
 252.50  0.0000E+000
 253.00  0.0000E+000
 253.50  0.0000E+000
 254.00  0.0000E+000
 254.50  0.0000E+000
 255.00  0.0000E+000
 255.50  0.0000E+000
 256.00  0.0000E+000
 256.50  0.0000E+000
 257.00  0.0000E+000
 257.50  0.0000E+000
 258.00  0.0000E+000
 258.50  0.0000E+000
 259.00  0.0000E+000
 259.50  0.0000E+000
 260.00  0.0000E+000
 260.50  0.0000E+000
 261.00  0.0000E+000
 261.50  0.0000E+000
 262.00  0.0000E+000
 262.50  0.0000E+000
 263.00  0.0000E+000
 263.50  0.0000E+000
 264.00  0.0000E+000
 264.50  0.0000E+000
 265.00  0.0000E+000
 265.50  0.0000E+000
 266.00  0.0000E+000
 266.50  0.0000E+000
 267.00  0.0000E+000
 267.50  0.0000E+000
 268.00  0.0000E+000
 268.50  0.0000E+000
 269.00  0.0000E+000
 269.50  0.0000E+000
 270.00  0.0000E+000
 270.50  0.0000E+000
 271.00  0.0000E+000
 271.50  0.0000E+000
 272.00  0.0000E+000
 272.50  0.0000E+000
 273.00  0.0000E+000
 273.50  0.0000E+000
 274.00  0.0000E+000
 274.50  0.0000E+000
 275.00  0.0000E+000
 275.50  0.0000E+000
 276.00  0.0000E+000
 276.50  0.0000E+000
 277.00  0.0000E+000
 277.50  0.0000E+000
 278.00  0.0000E+000
 278.50  0.0000E+000
 279.00  0.0000E+000
 279.50  0.0000E+000
 280.00  0.0000E+000
 280.50  0.0000E+000
 281.00  0.0000E+000
 281.50  0.0000E+000
 282.00  0.0000E+000
 282.50  0.0000E+000
 283.00  0.0000E+000
 283.50  0.0000E+000
 284.00  0.0000E+000
 284.50  0.0000E+000
 285.00  0.0000E+000
 285.50  0.0000E+000
 286.00  0.0000E+000
 286.50  0.0000E+000
 287.00  0.0000E+000
 287.50  0.0000E+000
 288.00  0.0000E+000
 288.50  0.0000E+000
 289.00  0.0000E+000
 289.50  0.0000E+000
 290.00  0.0000E+000
 290.50  0.0000E+000
 291.00  0.0000E+000
 291.50  0.0000E+000
 292.00  0.0000E+000
 292.50  0.0000E+000
 293.00  0.0000E+000
 293.50  0.0000E+000
 294.00  0.0000E+000
 294.50  0.0000E+000
 295.00  0.0000E+000
 295.50  0.0000E+000
 296.00  0.0000E+000
 296.50  0.0000E+000
 297.00  0.0000E+000
 297.50  0.0000E+000
 298.00  0.0000E+000
 298.50  0.0000E+000
 299.00  0.0000E+000
 299.50  0.0000E+000
 300.00  0.0000E+000
 300.50  0.0000E+000
 301.00  0.0000E+000
 301.50  0.0000E+000
 302.00  0.0000E+000
 302.50  0.0000E+000
 303.00  0.0000E+000
 303.50  0.0000E+000
 304.00  0.0000E+000
 304.50  0.0000E+000
 305.00  0.0000E+000
 305.50  0.0000E+000
 306.00  0.0000E+000
 306.50  0.0000E+000
 307.00  0.0000E+000
 307.50  0.0000E+000
 308.00  0.0000E+000
 308.50  0.0000E+000
 309.00  0.0000E+000
 309.50  0.0000E+000
 310.00  0.0000E+000
 310.50  0.0000E+000
 311.00  0.0000E+000
 311.50  0.0000E+000
 312.00  0.0000E+000
 312.50  0.0000E+000
 313.00  0.0000E+000
 313.50  0.0000E+000
 314.00  0.0000E+000
 314.50  0.0000E+000
 315.00  0.0000E+000
 315.50  0.0000E+000
 316.00  0.0000E+000
 316.50  0.0000E+000
 317.00  0.0000E+000
 317.50  0.0000E+000
 318.00  0.0000E+000
 318.50  0.0000E+000
 319.00  0.0000E+000
 319.50  0.0000E+000
 320.00  0.0000E+000
 320.50  0.0000E+000
 321.00  0.0000E+000
 321.50  0.0000E+000
 322.00  0.0000E+000
 322.50  0.0000E+000
 323.00  0.0000E+000
 323.50  0.0000E+000
 324.00  0.0000E+000
 324.50  0.0000E+000
 325.00  0.0000E+000
 325.50  0.0000E+000
 326.00  0.0000E+000
 326.50  0.0000E+000
 327.00  0.0000E+000
 327.50  0.0000E+000
 328.00  0.0000E+000
 328.50  0.0000E+000
 329.00  0.0000E+000
 329.50  0.0000E+000
 330.00  0.0000E+000
 330.50  0.0000E+000
 331.00  0.0000E+000
 331.50  0.0000E+000
 332.00  0.0000E+000
 332.50  0.0000E+000
 333.00  0.0000E+000
 333.50  0.0000E+000
 334.00  0.0000E+000
 334.50  0.0000E+000
 335.00  0.0000E+000
 335.50  0.0000E+000
 336.00  0.0000E+000
 336.50  0.0000E+000
 337.00  0.0000E+000
 337.50  0.0000E+000
 338.00  0.0000E+000
 338.50  0.0000E+000
 339.00  0.0000E+000
 339.50  0.0000E+000
 340.00  0.0000E+000
 340.50  0.0000E+000
 341.00  0.0000E+000
 341.50  0.0000E+000
 342.00  0.0000E+000
 342.50  0.0000E+000
 343.00  0.0000E+000
 343.50  0.0000E+000
 344.00  0.0000E+000
 344.50  0.0000E+000
 345.00  0.0000E+000
 345.50  0.0000E+000
 346.00  0.0000E+000
 346.50  0.0000E+000
 347.00  0.0000E+000
 347.50  0.0000E+000
 348.00  0.0000E+000
 348.50  0.0000E+000
 349.00  0.0000E+000
 349.50  0.0000E+000
 350.00  0.0000E+000
 350.50  0.0000E+000
 351.00  0.0000E+000
 351.50  0.0000E+000
 352.00  0.0000E+000
 352.50  0.0000E+000
 353.00  0.0000E+000
 353.50  0.0000E+000
 354.00  0.0000E+000
 354.50  0.0000E+000
 355.00  0.0000E+000
 355.50  0.0000E+000
 356.00  0.0000E+000
 356.50  0.0000E+000
 357.00  0.0000E+000
 357.50  0.0000E+000
 358.00  0.0000E+000
 358.50  0.0000E+000
 359.00  0.0000E+000
 359.50  1.9808E-008
 360.00  2.8324E-007
 360.50  4.6900E-007
 361.00  4.6886E-007
 361.50  4.6064E-007
 362.00  4.5918E-007
 362.50  4.8169E-007
 363.00  5.4857E-007
 363.50  6.0420E-007
 364.00  6.0531E-007
 364.50  5.8433E-007
 365.00  5.3133E-007
 365.50  4.4125E-007
 366.00  4.2056E-007
 366.50  3.7136E-007
 367.00  3.6287E-007
 367.50  3.6608E-007
 368.00  4.0687E-007
 368.50  4.7837E-007
 369.00  5.4714E-007
 369.50  6.2955E-007
 370.00  6.7734E-007
 370.50  7.1942E-007
 371.00  7.0400E-007
 371.50  6.6778E-007
 372.00  6.0467E-007
 372.50  5.2950E-007
 373.00  4.8397E-007
 373.50  5.0018E-007
 374.00  5.1103E-007
 374.50  4.7850E-007
 375.00  4.8420E-007
 375.50  4.7679E-007
 376.00  4.5922E-007
 376.50  4.7206E-007
 377.00  4.9610E-007
 377.50  4.9856E-007
 378.00  4.7500E-007
 378.50  4.1695E-007
 379.00  3.5107E-007
 379.50  3.0428E-007
 380.00  2.6972E-007
 380.50  2.5930E-007
 381.00  2.7210E-007
 381.50  2.9052E-007
 382.00  2.9713E-007
 382.50  2.7596E-007
 383.00  2.5972E-007
 383.50  2.7062E-007
 384.00  2.7551E-007
 384.50  2.7400E-007
 385.00  2.8980E-007
 385.50  3.0477E-007
 386.00  2.9622E-007
 386.50  3.3203E-007
 387.00  3.7967E-007
 387.50  4.2493E-007
 388.00  4.8036E-007
 388.50  5.3299E-007
 389.00  5.4708E-007
 389.50  5.3574E-007
 390.00  4.9687E-007
 390.50  4.6396E-007
 391.00  4.4613E-007
 391.50  4.6600E-007
 392.00  5.0087E-007
 392.50  5.7817E-007
 393.00  6.5639E-007
 393.50  6.4799E-007
 394.00  6.5599E-007
 394.50  6.5848E-007
 395.00  5.7003E-007
 395.50  5.6172E-007
 396.00  5.4225E-007
 396.50  5.4024E-007
 397.00  5.8542E-007
 397.50  6.3607E-007
 398.00  6.8842E-007
 398.50  7.1008E-007
 399.00  6.7865E-007
 399.50  6.2525E-007
 400.00  5.5378E-007
 400.50  5.4756E-007
 401.00  5.2881E-007
 401.50  5.1073E-007
 402.00  5.4670E-007
 402.50  5.5478E-007
 403.00  5.4738E-007
 403.50  6.4019E-007
 404.00  7.0968E-007
 404.50  7.6499E-007
 405.00  8.6830E-007
 405.50  9.4278E-007
 406.00  9.4057E-007
 406.50  9.5604E-007
 407.00  9.4309E-007
 407.50  8.9080E-007
 408.00  8.6684E-007
 408.50  8.2524E-007
 409.00  8.1013E-007
 409.50  7.9367E-007
 410.00  7.9005E-007
 410.50  7.7380E-007
 411.00  7.7088E-007
 411.50  8.1024E-007
 412.00  9.0071E-007
 412.50  1.0315E-006
 413.00  1.1974E-006
 413.50  1.2600E-006
 414.00  1.2480E-006
 414.50  1.1808E-006
 415.00  1.0741E-006
 415.50  9.8339E-007
 416.00  9.3140E-007
 416.50  9.0731E-007
 417.00  8.9840E-007
 417.50  8.9766E-007
 418.00  9.2435E-007
 418.50  9.3828E-007
 419.00  9.6592E-007
 419.50  9.7269E-007
 420.00  9.6978E-007
 420.50  1.0313E-006
 421.00  1.0568E-006
 421.50  1.0304E-006
 422.00  1.0392E-006
 422.50  9.9594E-007
 423.00  8.8985E-007
 423.50  8.5227E-007
 424.00  8.3950E-007
 424.50  8.5012E-007
 425.00  9.1015E-007
 425.50  9.8015E-007
 426.00  1.0329E-006
 426.50  1.1107E-006
 427.00  1.1288E-006
 427.50  1.1301E-006
 428.00  1.0687E-006
 428.50  1.0066E-006
 429.00  9.5455E-007
 429.50  9.1543E-007
 430.00  9.4690E-007
 430.50  1.0344E-006
 431.00  1.0978E-006
 431.50  1.1667E-006
 432.00  1.3076E-006
 432.50  1.3641E-006
 433.00  1.4240E-006
 433.50  1.5052E-006
 434.00  1.5299E-006
 434.50  1.5522E-006
 435.00  1.6131E-006
 435.50  1.6737E-006
 436.00  1.6832E-006
 436.50  1.7244E-006
 437.00  1.7470E-006
 437.50  1.7072E-006
 438.00  1.6657E-006
 438.50  1.6057E-006
 439.00  1.5388E-006
 439.50  1.5166E-006
 440.00  1.5222E-006
 440.50  1.5206E-006
 441.00  1.5552E-006
 441.50  1.5805E-006
 442.00  1.5687E-006
 442.50  1.5316E-006
 443.00  1.4920E-006
 443.50  1.4068E-006
 444.00  1.3244E-006
 444.50  1.2536E-006
 445.00  1.2200E-006
 445.50  1.1937E-006
 446.00  1.2247E-006
 446.50  1.2608E-006
 447.00  1.3258E-006
 447.50  1.3781E-006
 448.00  1.4174E-006
 448.50  1.4421E-006
 449.00  1.4470E-006
 449.50  1.4566E-006
 450.00  1.4396E-006
 450.50  1.4201E-006
 451.00  1.3979E-006
 451.50  1.3784E-006
 452.00  1.3674E-006
 452.50  1.3765E-006
 453.00  1.4036E-006
 453.50  1.4385E-006
 454.00  1.4810E-006
 454.50  1.5209E-006
 455.00  1.5178E-006
 455.50  1.4939E-006
 456.00  1.4695E-006
 456.50  1.4410E-006
 457.00  1.4380E-006
 457.50  1.4626E-006
 458.00  1.4915E-006
 458.50  1.5117E-006
 459.00  1.5086E-006
 459.50  1.4869E-006
 460.00  1.4744E-006
 460.50  1.4504E-006
 461.00  1.4364E-006
 461.50  1.4607E-006
 462.00  1.4951E-006
 462.50  1.5340E-006
 463.00  1.5782E-006
 463.50  1.6230E-006
 464.00  1.6968E-006
 464.50  1.7693E-006
 465.00  1.8219E-006
 465.50  1.8844E-006
 466.00  1.9192E-006
 466.50  1.9129E-006
 467.00  1.9155E-006
 467.50  1.9288E-006
 468.00  1.9301E-006
 468.50  1.9420E-006
 469.00  1.9736E-006
 469.50  1.9972E-006
 470.00  2.0377E-006
 470.50  2.1433E-006
 471.00  2.2890E-006
 471.50  2.4341E-006
 472.00  2.6057E-006
 472.50  2.7521E-006
 473.00  2.8255E-006
 473.50  2.9245E-006
 474.00  3.0511E-006
 474.50  3.1611E-006
 475.00  3.2904E-006
 475.50  3.4195E-006
 476.00  3.5459E-006
 476.50  3.6747E-006
 477.00  3.8164E-006
 477.50  3.9586E-006
 478.00  4.1306E-006
 478.50  4.3236E-006
 479.00  4.4979E-006
 479.50  4.7161E-006
 480.00  4.9767E-006
 480.50  5.2359E-006
 481.00  5.5259E-006
 481.50  5.8585E-006
 482.00  6.1968E-006
 482.50  6.5395E-006
 483.00  6.9173E-006
 483.50  7.3209E-006
 484.00  7.7541E-006
 484.50  8.2113E-006
 485.00  8.6930E-006
 485.50  9.2106E-006
 486.00  9.7804E-006
 486.50  1.0419E-005
 487.00  1.1118E-005
 487.50  1.1830E-005
 488.00  1.2581E-005
 488.50  1.3381E-005
 489.00  1.4245E-005
 489.50  1.5184E-005
 490.00  1.6198E-005
 490.50  1.7295E-005
 491.00  1.8472E-005
 491.50  1.9758E-005
 492.00  2.1195E-005
 492.50  2.2792E-005
 493.00  2.4546E-005
 493.50  2.6443E-005
 494.00  2.8566E-005
 494.50  3.0856E-005
 495.00  3.3300E-005
 495.50  3.5956E-005
 496.00  3.8855E-005
 496.50  4.1989E-005
 497.00  4.5398E-005
 497.50  4.9121E-005
 498.00  5.3118E-005
 498.50  5.7390E-005
 499.00  6.2024E-005
 499.50  6.7074E-005
 500.00  7.2528E-005
 500.50  7.8405E-005
 501.00  8.4686E-005
 501.50  9.1333E-005
 502.00  9.8277E-005
 502.50  1.0551E-004
 503.00  1.1307E-004
 503.50  1.2095E-004
 504.00  1.2914E-004
 504.50  1.3777E-004
 505.00  1.4677E-004
 505.50  1.5612E-004
 506.00  1.6587E-004
 506.50  1.7604E-004
 507.00  1.8663E-004
 507.50  1.9768E-004
 508.00  2.0914E-004
 508.50  2.2099E-004
 509.00  2.3326E-004
 509.50  2.4608E-004
 510.00  2.5944E-004
 510.50  2.7342E-004
 511.00  2.8805E-004
 511.50  3.0317E-004
 512.00  3.1869E-004
 512.50  3.3455E-004
 513.00  3.5072E-004
 513.50  3.6713E-004
 514.00  3.8369E-004
 514.50  4.0025E-004
 515.00  4.1678E-004
 515.50  4.3293E-004
 516.00  4.4869E-004
 516.50  4.6387E-004
 517.00  4.7828E-004
 517.50  4.9178E-004
 518.00  5.0423E-004
 518.50  5.1557E-004
 519.00  5.2565E-004
 519.50  5.3447E-004
 520.00  5.4175E-004
 520.50  5.4767E-004
 521.00  5.5244E-004
 521.50  5.5663E-004
 522.00  5.6048E-004
 522.50  5.6425E-004
 523.00  5.6808E-004
 523.50  5.7194E-004
 524.00  5.7588E-004
 524.50  5.7998E-004
 525.00  5.8420E-004
 525.50  5.8868E-004
 526.00  5.9347E-004
 526.50  5.9859E-004
 527.00  6.0415E-004
 527.50  6.1010E-004
 528.00  6.1645E-004
 528.50  6.2328E-004
 529.00  6.3052E-004
 529.50  6.3826E-004
 530.00  6.4677E-004
 530.50  6.5587E-004
 531.00  6.6511E-004
 531.50  6.7406E-004
 532.00  6.8215E-004
 532.50  6.8935E-004
 533.00  6.9609E-004
 533.50  7.0267E-004
 534.00  7.0901E-004
 534.50  7.1485E-004
 535.00  7.1996E-004
 535.50  7.2420E-004
 536.00  7.2787E-004
 536.50  7.3113E-004
 537.00  7.3437E-004
 537.50  7.3718E-004
 538.00  7.3946E-004
 538.50  7.4108E-004
 539.00  7.4216E-004
 539.50  7.4271E-004
 540.00  7.4275E-004
 540.50  7.4226E-004
 541.00  7.4090E-004
 541.50  7.3843E-004
 542.00  7.3491E-004
 542.50  7.3043E-004
 543.00  7.2509E-004
 543.50  7.1921E-004
 544.00  7.1286E-004
 544.50  7.0598E-004
 545.00  6.9863E-004
 545.50  6.9087E-004
 546.00  6.8232E-004
 546.50  6.7325E-004
 547.00  6.6387E-004
 547.50  6.5405E-004
 548.00  6.4383E-004
 548.50  6.3280E-004
 549.00  6.2059E-004
 549.50  6.0722E-004
 550.00  5.9306E-004
 550.50  5.7862E-004
 551.00  5.6420E-004
 551.50  5.5003E-004
 552.00  5.3625E-004
 552.50  5.2299E-004
 553.00  5.1038E-004
 553.50  4.9839E-004
 554.00  4.8684E-004
 554.50  4.7554E-004
 555.00  4.6435E-004
 555.50  4.5332E-004
 556.00  4.4260E-004
 556.50  4.3218E-004
 557.00  4.2203E-004
 557.50  4.1200E-004
 558.00  4.0187E-004
 558.50  3.9169E-004
 559.00  3.8171E-004
 559.50  3.7200E-004
 560.00  3.6272E-004
 560.50  3.5388E-004
 561.00  3.4531E-004
 561.50  3.3702E-004
 562.00  3.2896E-004
 562.50  3.2099E-004
 563.00  3.1317E-004
 563.50  3.0552E-004
 564.00  2.9820E-004
 564.50  2.9117E-004
 565.00  2.8442E-004
 565.50  2.7788E-004
 566.00  2.7147E-004
 566.50  2.6514E-004
 567.00  2.5900E-004
 567.50  2.5303E-004
 568.00  2.4716E-004
 568.50  2.4135E-004
 569.00  2.3571E-004
 569.50  2.3023E-004
 570.00  2.2485E-004
 570.50  2.1951E-004
 571.00  2.1436E-004
 571.50  2.0931E-004
 572.00  2.0432E-004
 572.50  1.9946E-004
 573.00  1.9468E-004
 573.50  1.8992E-004
 574.00  1.8535E-004
 574.50  1.8100E-004
 575.00  1.7683E-004
 575.50  1.7283E-004
 576.00  1.6892E-004
 576.50  1.6508E-004
 577.00  1.6142E-004
 577.50  1.5794E-004
 578.00  1.5465E-004
 578.50  1.5144E-004
 579.00  1.4820E-004
 579.50  1.4489E-004
 580.00  1.4152E-004
 580.50  1.3826E-004
 581.00  1.3526E-004
 581.50  1.3237E-004
 582.00  1.2964E-004
 582.50  1.2693E-004
 583.00  1.2424E-004
 583.50  1.2165E-004
 584.00  1.1918E-004
 584.50  1.1684E-004
 585.00  1.1462E-004
 585.50  1.1240E-004
 586.00  1.1013E-004
 586.50  1.0790E-004
 587.00  1.0564E-004
 587.50  1.0346E-004
 588.00  1.0126E-004
 588.50  9.9085E-005
 589.00  9.6970E-005
 589.50  9.4877E-005
 590.00  9.2851E-005
 590.50  9.0950E-005
 591.00  8.9185E-005
 591.50  8.7518E-005
 592.00  8.5842E-005
 592.50  8.4265E-005
 593.00  8.2606E-005
 593.50  8.0986E-005
 594.00  7.9386E-005
 594.50  7.7800E-005
 595.00  7.6356E-005
 595.50  7.5122E-005
 596.00  7.3999E-005
 596.50  7.3069E-005
 597.00  7.2204E-005
 597.50  7.1375E-005
 598.00  7.0491E-005
 598.50  6.9498E-005
 599.00  6.8377E-005
 599.50  6.7294E-005
 600.00  6.6143E-005
 600.50  6.5046E-005
 601.00  6.3956E-005
 601.50  6.2860E-005
 602.00  6.1824E-005
 602.50  6.0751E-005
 603.00  5.9682E-005
 603.50  5.8758E-005
 604.00  5.7867E-005
 604.50  5.7065E-005
 605.00  5.6304E-005
 605.50  5.5686E-005
 606.00  5.5054E-005
 606.50  5.4446E-005
 607.00  5.3920E-005
 607.50  5.3336E-005
 608.00  5.2581E-005
 608.50  5.1825E-005
 609.00  5.1007E-005
 609.50  5.0128E-005
 610.00  4.9361E-005
 610.50  4.8670E-005
 611.00  4.7976E-005
 611.50  4.7236E-005
 612.00  4.6557E-005
 612.50  4.5909E-005
 613.00  4.5301E-005
 613.50  4.4777E-005
 614.00  4.4258E-005
 614.50  4.3736E-005
 615.00  4.3276E-005
 615.50  4.2867E-005
 616.00  4.2407E-005
 616.50  4.1946E-005
 617.00  4.1423E-005
 617.50  4.0811E-005
 618.00  4.0246E-005
 618.50  3.9927E-005
 619.00  3.9629E-005
 619.50  3.9393E-005
 620.00  3.9113E-005
 620.50  3.8679E-005
 621.00  3.8208E-005
 621.50  3.7719E-005
 622.00  3.7243E-005
 622.50  3.6859E-005
 623.00  3.6454E-005
 623.50  3.6166E-005
 624.00  3.5962E-005
 624.50  3.5752E-005
 625.00  3.5567E-005
 625.50  3.5392E-005
 626.00  3.5096E-005
 626.50  3.4699E-005
 627.00  3.4180E-005
 627.50  3.3631E-005
 628.00  3.2997E-005
 628.50  3.2534E-005
 629.00  3.2143E-005
 629.50  3.1834E-005
 630.00  3.1437E-005
 630.50  3.1262E-005
 631.00  3.0865E-005
 631.50  3.0664E-005
 632.00  3.0309E-005
 632.50  2.9928E-005
 633.00  2.9450E-005
 633.50  2.8927E-005
 634.00  2.8398E-005
 634.50  2.7967E-005
 635.00  2.7805E-005
 635.50  2.7572E-005
 636.00  2.7393E-005
 636.50  2.7338E-005
 637.00  2.7163E-005
 637.50  2.6717E-005
 638.00  2.6393E-005
 638.50  2.5975E-005
 639.00  2.5531E-005
 639.50  2.5175E-005
 640.00  2.4817E-005
 640.50  2.4515E-005
 641.00  2.4164E-005
 641.50  2.3707E-005
 642.00  2.3290E-005
 642.50  2.2869E-005
 643.00  2.2443E-005
 643.50  2.2155E-005
 644.00  2.2134E-005
 644.50  2.2178E-005
 645.00  2.2241E-005
 645.50  2.2365E-005
 646.00  2.2357E-005
 646.50  2.2153E-005
 647.00  2.1920E-005
 647.50  2.1653E-005
 648.00  2.1387E-005
 648.50  2.1199E-005
 649.00  2.1058E-005
 649.50  2.0954E-005
 650.00  2.0942E-005
 650.50  2.0957E-005
 651.00  2.0834E-005
 651.50  2.0755E-005
 652.00  2.0539E-005
 652.50  2.0265E-005
 653.00  2.0088E-005
 653.50  1.9848E-005
 654.00  1.9514E-005
 654.50  1.9241E-005
 655.00  1.8778E-005
 655.50  1.8340E-005
 656.00  1.7981E-005
 656.50  1.7791E-005
 657.00  1.7688E-005
 657.50  1.7782E-005
 658.00  1.8068E-005
 658.50  1.8471E-005
 659.00  1.8820E-005
 659.50  1.8843E-005
 660.00  1.8499E-005
 660.50  1.7966E-005
 661.00  1.7280E-005
 661.50  1.6409E-005
 662.00  1.5891E-005
 662.50  1.5589E-005
 663.00  1.5466E-005
 663.50  1.5288E-005
 664.00  1.5499E-005
 664.50  1.5550E-005
 665.00  1.5454E-005
 665.50  1.5255E-005
 666.00  1.5134E-005
 666.50  1.4881E-005
 667.00  1.4664E-005
 667.50  1.4556E-005
 668.00  1.4515E-005
 668.50  1.4505E-005
 669.00  1.4503E-005
 669.50  1.4479E-005
 670.00  1.4410E-005
 670.50  1.4267E-005
 671.00  1.4176E-005
 671.50  1.4075E-005
 672.00  1.3870E-005
 672.50  1.3767E-005
 673.00  1.3927E-005
 673.50  1.4080E-005
 674.00  1.4174E-005
 674.50  1.4387E-005
 675.00  1.4383E-005
 675.50  1.4092E-005
 676.00  1.3936E-005
 676.50  1.3905E-005
 677.00  1.3736E-005
 677.50  1.3580E-005
 678.00  1.3671E-005
 678.50  1.3680E-005
 679.00  1.3758E-005
 679.50  1.3771E-005
 680.00  1.4015E-005
 680.50  1.3967E-005
 681.00  1.3899E-005
 681.50  1.3720E-005
 682.00  1.3296E-005
 682.50  1.2788E-005
 683.00  1.2194E-005
 683.50  1.1463E-005
 684.00  1.0937E-005
 684.50  1.0529E-005
 685.00  1.0426E-005
 685.50  1.0514E-005
 686.00  1.0670E-005
 686.50  1.0995E-005
 687.00  1.0936E-005
 687.50  1.0767E-005
 688.00  1.0697E-005
 688.50  1.0518E-005
 689.00  1.0379E-005
 689.50  1.0508E-005
 690.00  1.0720E-005
 690.50  1.0726E-005
 691.00  1.0678E-005
 691.50  1.0889E-005
 692.00  1.1007E-005
 692.50  1.0890E-005
 693.00  1.0820E-005
 693.50  1.0646E-005
 694.00  1.0248E-005
 694.50  9.8170E-006
 695.00  9.4680E-006
 695.50  9.3182E-006
 696.00  9.1702E-006
 696.50  8.9615E-006
 697.00  8.7685E-006
 697.50  8.5592E-006
 698.00  8.3605E-006
 698.50  8.1767E-006
 699.00  8.1346E-006
 699.50  8.1329E-006
 700.00  8.0608E-006
 700.50  7.9391E-006
 701.00  7.6971E-006
 701.50  7.4059E-006
 702.00  7.1977E-006
 702.50  7.1031E-006
 703.00  7.1060E-006
 703.50  7.1522E-006
 704.00  7.1060E-006
 704.50  6.9469E-006
 705.00  6.6626E-006
 705.50  6.4164E-006
 706.00  6.1334E-006
 706.50  6.0238E-006
 707.00  6.0227E-006
 707.50  6.0837E-006
 708.00  5.9958E-006
 708.50  6.2535E-006
 709.00  6.4815E-006
 709.50  6.6058E-006
 710.00  6.7833E-006
 710.50  6.9981E-006
 711.00  7.0787E-006
 711.50  7.2407E-006
 712.00  7.5039E-006
 712.50  7.4075E-006
 713.00  7.1332E-006
 713.50  6.7382E-006
 714.00  6.5175E-006
 714.50  6.2338E-006
 715.00  6.5921E-006
 715.50  6.7196E-006
 716.00  6.7535E-006
 716.50  6.6671E-006
 717.00  6.4463E-006
 717.50  6.1120E-006
 718.00  5.9606E-006
 718.50  5.9267E-006
 719.00  5.7163E-006
 719.50  5.5435E-006
 720.00  5.5991E-006
 720.50  5.3118E-006
 721.00  5.0141E-006
 721.50  4.7439E-006
 722.00  4.5696E-006
 722.50  4.1489E-006
 723.00  4.1134E-006
 723.50  4.0386E-006
 724.00  4.3371E-006
 724.50  4.7515E-006
 725.00  5.3694E-006
 725.50  5.3129E-006
 726.00  5.1104E-006
 726.50  4.9266E-006
 727.00  4.4753E-006
 727.50  4.1960E-006
 728.00  4.4608E-006
 728.50  4.7023E-006
 729.00  4.9292E-006
 729.50  5.1178E-006
 730.00  5.4391E-006
 730.50  5.9044E-006
 731.00  6.4307E-006
 731.50  6.8636E-006
 732.00  7.4847E-006
 732.50  7.6412E-006
 733.00  7.8868E-006
 733.50  8.0954E-006
 734.00  8.2676E-006
 734.50  8.1768E-006
 735.00  8.0307E-006
 735.50  7.5548E-006
 736.00  6.8522E-006
 736.50  6.1136E-006
 737.00  5.6264E-006
 737.50  5.0323E-006
 738.00  4.7248E-006
 738.50  4.5672E-006
 739.00  4.2428E-006
 739.50  4.1198E-006
 740.00  4.3309E-006
 740.50  4.2955E-006
 741.00  3.9608E-006
 741.50  4.0266E-006
 742.00  3.8871E-006
 742.50  3.6184E-006
 743.00  3.4742E-006
 743.50  3.5444E-006
 744.00  3.6877E-006
 744.50  3.7938E-006
 745.00  3.8945E-006
 745.50  4.0124E-006
 746.00  3.9290E-006
 746.50  3.5437E-006
 747.00  3.1584E-006
 747.50  2.8074E-006
 748.00  2.6940E-006
 748.50  2.9648E-006
 749.00  3.7214E-006
 749.50  4.2124E-006
 750.00  4.2339E-006
 750.50  4.1440E-006
 751.00  3.6927E-006
 751.50  3.2576E-006
 752.00  3.1739E-006
 752.50  3.3340E-006
 753.00  3.5599E-006
 753.50  3.6657E-006
 754.00  3.6527E-006
 754.50  3.5933E-006
 755.00  3.5254E-006
 755.50  3.7121E-006
 756.00  4.0340E-006
 756.50  3.8996E-006
 757.00  3.8977E-006
 757.50  3.7435E-006
 758.00  3.5046E-006
 758.50  3.5698E-006
 759.00  4.0554E-006
 759.50  4.4336E-006
 760.00  4.6438E-006
 760.50  4.6275E-006
 761.00  4.6224E-006
 761.50  4.5578E-006
 762.00  4.5536E-006
 762.50  4.7068E-006
 763.00  4.8588E-006
 763.50  4.6384E-006
 764.00  4.6214E-006
 764.50  4.6602E-006
 765.00  4.1571E-006
 765.50  3.8318E-006
 766.00  3.8015E-006
 766.50  3.8751E-006
 767.00  3.2873E-006
 767.50  2.8588E-006
 768.00  2.1664E-006
 768.50  1.3132E-006
 769.00  7.7619E-007
 769.50  1.0341E-006
 770.00  1.2272E-006
 770.50  1.3577E-006
 771.00  1.6008E-006
 771.50  1.7183E-006
 772.00  1.6256E-006
 772.50  2.1134E-006
 773.00  2.4549E-006
 773.50  2.8370E-006
 774.00  3.1204E-006
 774.50  3.3505E-006
 775.00  3.4713E-006
 775.50  3.6371E-006
 776.00  3.7632E-006
 776.50  4.0524E-006
 777.00  4.2695E-006
 777.50  4.3260E-006
 778.00  4.0286E-006
 778.50  3.5339E-006
 779.00  2.8650E-006
 779.50  1.9848E-006
 780.00  1.5600E-006
 780.50  1.5135E-006
 781.00  1.9056E-006
 781.50  2.3238E-006
 782.00  3.3653E-006
 782.50  3.9663E-006
 783.00  4.4151E-006
 783.50  4.2775E-006
 784.00  4.4776E-006
 784.50  4.4708E-006
 785.00  4.4174E-006
 785.50  4.0344E-006
 786.00  3.7735E-006
 786.50  3.3289E-006
 787.00  2.8063E-006
 787.50  2.5226E-006
 788.00  2.4852E-006
 788.50  2.2892E-006
 789.00  2.0244E-006
 789.50  1.7096E-006
 790.00  1.3029E-006
 790.50  1.0310E-006
 791.00  7.4944E-007
 791.50  4.3462E-007
 792.00  4.0112E-007
 792.50  5.5051E-007
 793.00  6.7766E-007
 793.50  7.7753E-007
 794.00  8.5967E-007
 794.50  9.3448E-007
 795.00  6.8936E-007
 795.50  4.8768E-007
 796.00  5.2060E-007
 796.50  5.5941E-007
 797.00  6.6740E-007
 797.50  8.3594E-007
 798.00  8.5275E-007
 798.50  9.1825E-007
 799.00  1.2290E-006
 799.50  1.2319E-006
 800.00  1.2926E-006
 800.50  1.5134E-006
 801.00  1.3250E-006
 801.50  9.7850E-007
 802.00  7.1752E-007
 802.50  6.2690E-007
 803.00  7.8587E-007
 803.50  6.7637E-007
 804.00  5.1594E-007
 804.50  5.3779E-007
 805.00  2.5505E-007
 805.50  2.0238E-007
 806.00  6.2317E-007
 806.50  1.0169E-006
 807.00  1.4237E-006
 807.50  1.5527E-006
 808.00  1.2461E-006
 808.50  7.3739E-007
 809.00  7.4291E-007
 809.50  9.1144E-007
 810.00  1.6049E-006
 810.50  2.1062E-006
 811.00  2.4344E-006
 811.50  1.7719E-006
 812.00  1.2281E-006
 812.50  3.6942E-007
 813.00  6.5698E-007
 813.50  1.1453E-006
 814.00  1.2873E-006
 814.50  1.5643E-006
 815.00  1.6310E-006
 815.50  1.2010E-006
 816.00  9.9713E-007
 816.50  1.1417E-006
 817.00  1.3183E-006
 817.50  1.5478E-006
 818.00  1.8581E-006
 818.50  2.0768E-006
 819.00  2.1609E-006
 819.50  2.4275E-006
 820.00  2.5698E-006
 820.50  2.8695E-006
 821.00  3.0798E-006
 821.50  3.4066E-006
 822.00  3.1648E-006
 822.50  2.8744E-006
 823.00  2.4135E-006
 823.50  2.4776E-006
 824.00  3.0367E-006
 824.50  3.3303E-006
 825.00  3.8378E-006
 825.50  4.3282E-006
 826.00  4.2760E-006
 826.50  4.0422E-006
 827.00  4.1307E-006
 827.50  3.8067E-006
 828.00  3.3872E-006
 828.50  3.2583E-006
 829.00  3.2472E-006
 829.50  3.2263E-006
 830.00  3.6618E-006
 830.50  3.8888E-006
 831.00  3.8758E-006
 831.50  3.9422E-006
 832.00  3.5071E-006
 832.50  2.8306E-006
 833.00  2.4423E-006
 833.50  1.9652E-006
 834.00  1.4085E-006
 834.50  1.6619E-006
 835.00  2.4242E-006
 835.50  2.9132E-006
 836.00  2.9976E-006
 836.50  2.9012E-006
 837.00  2.5618E-006
 837.50  1.9528E-006
 838.00  1.6673E-006
 838.50  2.0258E-006
 839.00  2.3274E-006
 839.50  2.5460E-006
 840.00  2.6864E-006
 840.50  3.1205E-006
 841.00  2.9714E-006
 841.50  3.0412E-006
 842.00  3.4501E-006
 842.50  3.5852E-006
 843.00  3.1125E-006
 843.50  3.0840E-006
 844.00  2.8129E-006
 844.50  2.2077E-006
 845.00  2.0476E-006
 845.50  2.4539E-006
 846.00  3.1272E-006
 846.50  3.7998E-006
 847.00  4.5167E-006
 847.50  4.9508E-006
 848.00  4.5892E-006
 848.50  4.1786E-006
 849.00  3.9420E-006
 849.50  3.7310E-006
 850.00  4.0396E-006
 850.50  4.3789E-006
 851.00  4.2685E-006
 851.50  3.8574E-006
 852.00  3.4055E-006
 852.50  3.1436E-006
 853.00  2.9252E-006
 853.50  3.1139E-006
 854.00  3.4289E-006
 854.50  3.7261E-006
 855.00  3.6409E-006
 855.50  4.1413E-006
 856.00  4.8262E-006
 856.50  5.5000E-006
 857.00  5.4025E-006
 857.50  5.1141E-006
 858.00  4.5537E-006
 858.50  3.5569E-006
 859.00  2.8249E-006
 859.50  3.0218E-006
 860.00  3.4179E-006
 860.50  3.9688E-006
 861.00  4.2680E-006
 861.50  3.7469E-006
 862.00  3.3483E-006
 862.50  3.1841E-006
 863.00  2.7897E-006
 863.50  2.4300E-006
 864.00  2.7596E-006
 864.50  2.7779E-006
 865.00  2.0865E-006
 865.50  1.6649E-006
 866.00  2.1880E-006
 866.50  2.5892E-006
 867.00  2.5491E-006
 867.50  2.7650E-006
 868.00  2.3062E-006
 868.50  1.4234E-006
 869.00  3.5926E-007
 869.50  0.0000E+000
 870.00  0.0000E+000
 870.50  0.0000E+000
 871.00  0.0000E+000
 871.50  0.0000E+000
 872.00  5.6268E-007
 872.50  2.9795E-006
 873.00  5.4645E-006
 873.50  7.0193E-006
 874.00  8.0416E-006
 874.50  7.9154E-006
 875.00  6.8670E-006
 875.50  7.1000E-006
 876.00  8.1182E-006
 876.50  9.8756E-006
 877.00  1.0374E-005
 877.50  1.1555E-005
 878.00  1.2354E-005
 878.50  1.1952E-005
 879.00  9.8750E-006
 879.50  8.4811E-006
 880.00  6.6928E-006
 880.50  5.4531E-006
 881.00  4.2317E-006
 881.50  3.6450E-006
 882.00  2.9511E-006
 882.50  2.7228E-006
 883.00  2.8846E-006
 883.50  2.4061E-006
 884.00  2.1264E-006
 884.50  2.1796E-006
 885.00  9.3764E-007
 885.50  0.0000E+000
 886.00  0.0000E+000
 886.50  0.0000E+000
 887.00  0.0000E+000
 887.50  0.0000E+000
 888.00  0.0000E+000
 888.50  0.0000E+000
 889.00  0.0000E+000
 889.50  0.0000E+000
 890.00  7.7308E-007
 890.50  1.7642E-006
 891.00  2.3384E-006
 891.50  3.0340E-006
 892.00  3.3417E-006
 892.50  4.0716E-006
 893.00  4.9947E-006
 893.50  6.1891E-006
 894.00  7.5616E-006
 894.50  8.8906E-006
 895.00  9.3717E-006
 895.50  1.0286E-005
 896.00  1.1351E-005
 896.50  1.1893E-005
 897.00  1.1897E-005
 897.50  1.1961E-005
 898.00  1.2717E-005
 898.50  1.3815E-005
 899.00  1.3484E-005
 899.50  1.2560E-005
 900.00  1.1889E-005
 900.50  1.0061E-005
 901.00  7.4141E-006
 901.50  6.6798E-006
 902.00  5.6521E-006
 902.50  4.1934E-006
 903.00  2.4446E-006
 903.50  1.9420E-006
 904.00  1.2384E-006
 904.50  2.1729E-007
 905.00  0.0000E+000
 905.50  0.0000E+000
 906.00  0.0000E+000
 906.50  1.9326E-007
 907.00  1.4956E-006
 907.50  3.8750E-006
 908.00  5.7959E-006
 908.50  7.4393E-006
 909.00  8.6176E-006
 909.50  9.4061E-006
 910.00  9.2857E-006
 910.50  8.6805E-006
 911.00  8.1689E-006
 911.50  8.1092E-006
 912.00  8.2213E-006
 912.50  8.6869E-006
 913.00  8.3861E-006
 913.50  8.5551E-006
 914.00  7.5138E-006
 914.50  6.4453E-006
 915.00  5.7803E-006
 915.50  5.2658E-006
 916.00  5.8213E-006
 916.50  6.5008E-006
 917.00  7.2245E-006
 917.50  8.3675E-006
 918.00  9.0880E-006
 918.50  9.4558E-006
 919.00  1.0084E-005
 919.50  9.7380E-006
 920.00  9.7134E-006
 920.50  9.6262E-006
 921.00  9.1670E-006
 921.50  9.8568E-006
 922.00  1.0709E-005
 922.50  1.1533E-005
 923.00  1.3269E-005
 923.50  1.4238E-005
 924.00  1.4254E-005
 924.50  1.3677E-005
 925.00  1.2232E-005
 925.50  1.0026E-005
 926.00  8.1618E-006
 926.50  7.0132E-006
 927.00  5.8885E-006
 927.50  5.3063E-006
 928.00  5.7766E-006
 928.50  6.1405E-006
 929.00  6.4379E-006
 929.50  7.1224E-006
 930.00  8.0908E-006
 930.50  7.8545E-006
 931.00  5.6937E-006
 931.50  4.2226E-006
 932.00  2.2854E-006
 932.50  2.2215E-007
 933.00  1.7956E-008
 933.50  2.2299E-007
 934.00  7.3956E-007
 934.50  2.2171E-006
 935.00  1.6827E-006
 935.50  1.1071E-006
 936.00  1.4808E-006
 936.50  2.3403E-006
 937.00  2.2407E-006
 937.50  2.9637E-006
 938.00  3.0618E-006
 938.50  2.4704E-006
 939.00  9.5592E-007
 939.50  0.0000E+000
 940.00  0.0000E+000
 940.50  2.2127E-008
 941.00  1.4612E-008
 941.50  4.3428E-007
 942.00  6.7914E-007
 942.50  7.0304E-007
 943.00  1.8597E-006
 943.50  3.1603E-006
 944.00  3.2538E-006
 944.50  4.8347E-006
 945.00  6.0016E-006
 945.50  4.8153E-006
 946.00  6.3912E-006
 946.50  8.6156E-006
 947.00  8.9276E-006
 947.50  1.2817E-005
 948.00  1.6493E-005
 948.50  1.6911E-005
 949.00  1.5628E-005
 949.50  1.4430E-005
 950.00  9.7285E-006
 950.50  6.3568E-006
 951.00  4.7881E-006
 951.50  6.9767E-006
 952.00  1.0905E-005
 952.50  1.6365E-005
 953.00  2.0903E-005
 953.50  2.3679E-005
 954.00  2.3639E-005
 954.50  2.1421E-005
 955.00  1.7642E-005
 955.50  1.3930E-005
 956.00  1.1618E-005
 956.50  9.8674E-006
 957.00  8.3840E-006
 957.50  8.4681E-006
 958.00  8.5641E-006
 958.50  8.0981E-006
 959.00  6.2925E-006
 959.50  4.9678E-006
 960.00  3.8389E-006
 960.50  4.6776E-006
 961.00  4.1811E-006
 961.50  3.7835E-006
 962.00  2.7176E-006
 962.50  1.5022E-006
 963.00  5.8877E-008
 963.50  3.4586E-006
 964.00  4.7957E-006
 964.50  8.3855E-006
 965.00  1.1135E-005
 965.50  1.4768E-005
 966.00  1.5569E-005
 966.50  1.5503E-005
 967.00  1.3195E-005
 967.50  1.1669E-005
 968.00  9.1920E-006
 968.50  6.6610E-006
 969.00  7.8817E-006
 969.50  1.0214E-005
 970.00  1.1738E-005
 970.50  9.7938E-006
 971.00  8.6628E-006
 971.50  9.2493E-006
 972.00  8.8971E-006
 972.50  8.3335E-006
 973.00  1.1288E-005
 973.50  1.5397E-005
 974.00  1.9226E-005
 974.50  2.2609E-005
 975.00  2.4024E-005
 975.50  2.2353E-005
 976.00  2.0349E-005
 976.50  1.6803E-005
 977.00  1.3520E-005
 977.50  1.4479E-005
 978.00  1.1473E-005
 978.50  1.0212E-005
 979.00  1.1760E-005
 979.50  1.8125E-005
 980.00  2.6544E-005
 980.50  3.6516E-005
 981.00  4.2763E-005
 981.50  4.5948E-005
 982.00  4.0404E-005
 982.50  2.5961E-005
 983.00  2.3019E-005
 983.50  1.1776E-005
 984.00  6.0619E-006
 984.50  7.1520E-006
 985.00  1.2810E-005
 985.50  1.1093E-005
 986.00  1.3708E-005
 986.50  1.2131E-005
 987.00  8.5661E-006
 987.50  4.8105E-006
 988.00  2.4153E-006
 988.50  1.8564E-006
 989.00  5.7668E-006
 989.50  9.3889E-006
 990.00  7.2552E-006
 990.50  7.7970E-006
 991.00  1.1523E-005
 991.50  1.0429E-005
 992.00  9.7744E-006
 992.50  1.1929E-005
 993.00  8.7841E-006
 993.50  2.4095E-006
 994.00  2.2923E-006
 994.50  9.3670E-006
 995.00  1.1455E-005
 995.50  1.7749E-005
 996.00  2.9295E-005
 996.50  3.5011E-005
 997.00  3.5310E-005
 997.50  4.4643E-005
 998.00  4.5584E-005
 998.50  4.3343E-005
 999.00  3.6058E-005
 999.50  3.0177E-005
1000.00  1.9084E-005
1000.50  9.4510E-007
1001.00  0.0000E+000
1001.50  0.0000E+000
1002.00  0.0000E+000
1002.50  0.0000E+000
1003.00  0.0000E+000
1003.50  0.0000E+000
1004.00  0.0000E+000
1004.50  0.0000E+000
1005.00  0.0000E+000
1005.50  0.0000E+000
1006.00  0.0000E+000
1006.50  0.0000E+000
1007.00  0.0000E+000
1007.50  0.0000E+000
1008.00  0.0000E+000
1008.50  0.0000E+000
1009.00  0.0000E+000
1009.50  0.0000E+000
1010.00  0.0000E+000
1010.50  0.0000E+000
1011.00  0.0000E+000
1011.50  0.0000E+000
1012.00  0.0000E+000
1012.50  0.0000E+000
1013.00  0.0000E+000
1013.50  0.0000E+000
1014.00  0.0000E+000
1014.50  0.0000E+000
1015.00  0.0000E+000
1015.50  0.0000E+000
1016.00  0.0000E+000
1016.50  0.0000E+000
1017.00  0.0000E+000
1017.50  0.0000E+000
1018.00  0.0000E+000
1018.50  0.0000E+000
1019.00  0.0000E+000
1019.50  0.0000E+000
1020.00  0.0000E+000
1020.50  0.0000E+000
1021.00  0.0000E+000
1021.50  0.0000E+000
1022.00  0.0000E+000
1022.50  0.0000E+000
1023.00  0.0000E+000
1023.50  0.0000E+000
1024.00  0.0000E+000
1024.50  0.0000E+000
1025.00  0.0000E+000
1025.50  0.0000E+000
1026.00  0.0000E+000
1026.50  0.0000E+000
1027.00  0.0000E+000
1027.50  0.0000E+000
1028.00  0.0000E+000
1028.50  0.0000E+000
1029.00  0.0000E+000
1029.50  0.0000E+000
1030.00  0.0000E+000
1030.50  0.0000E+000
1031.00  0.0000E+000
1031.50  0.0000E+000
1032.00  0.0000E+000
1032.50  0.0000E+000
1033.00  0.0000E+000
1033.50  0.0000E+000
1034.00  0.0000E+000
1034.50  0.0000E+000
1035.00  0.0000E+000
1035.50  0.0000E+000
1036.00  0.0000E+000
1036.50  0.0000E+000
1037.00  0.0000E+000
1037.50  0.0000E+000
1038.00  0.0000E+000
1038.50  0.0000E+000
1039.00  0.0000E+000
1039.50  0.0000E+000
1040.00  0.0000E+000
1040.50  0.0000E+000
1041.00  0.0000E+000
1041.50  0.0000E+000
1042.00  0.0000E+000
1042.50  0.0000E+000
1043.00  0.0000E+000
1043.50  0.0000E+000
1044.00  0.0000E+000
1044.50  0.0000E+000
1045.00  0.0000E+000
1045.50  0.0000E+000
1046.00  0.0000E+000
1046.50  0.0000E+000
1047.00  0.0000E+000
1047.50  0.0000E+000
1048.00  0.0000E+000
1048.50  0.0000E+000
1049.00  0.0000E+000
1049.50  0.0000E+000
1050.00  0.0000E+000
1050.50  0.0000E+000
1051.00  0.0000E+000
1051.50  0.0000E+000
1052.00  0.0000E+000
1052.50  0.0000E+000
1053.00  0.0000E+000
1053.50  0.0000E+000
1054.00  0.0000E+000
1054.50  0.0000E+000
1055.00  0.0000E+000
1055.50  0.0000E+000
1056.00  0.0000E+000
1056.50  0.0000E+000
1057.00  0.0000E+000
1057.50  0.0000E+000
1058.00  0.0000E+000
1058.50  0.0000E+000
1059.00  0.0000E+000
1059.50  0.0000E+000
1060.00  0.0000E+000
1060.50  0.0000E+000
1061.00  0.0000E+000
1061.50  0.0000E+000
1062.00  0.0000E+000
1062.50  0.0000E+000
1063.00  0.0000E+000
1063.50  0.0000E+000
1064.00  0.0000E+000
1064.50  0.0000E+000
1065.00  0.0000E+000
1065.50  0.0000E+000
1066.00  0.0000E+000
1066.50  0.0000E+000
1067.00  0.0000E+000
1067.50  0.0000E+000
1068.00  0.0000E+000
1068.50  0.0000E+000
1069.00  0.0000E+000
1069.50  0.0000E+000
1070.00  0.0000E+000
1070.50  0.0000E+000
1071.00  0.0000E+000
1071.50  0.0000E+000
1072.00  0.0000E+000
1072.50  0.0000E+000
1073.00  0.0000E+000
1073.50  0.0000E+000
1074.00  0.0000E+000
1074.50  0.0000E+000
1075.00  0.0000E+000
1075.50  0.0000E+000
1076.00  0.0000E+000
1076.50  0.0000E+000
1077.00  0.0000E+000
1077.50  0.0000E+000
1078.00  0.0000E+000
1078.50  0.0000E+000
1079.00  0.0000E+000
1079.50  0.0000E+000
1080.00  0.0000E+000
1080.50  0.0000E+000
1081.00  0.0000E+000
1081.50  0.0000E+000
1082.00  0.0000E+000
1082.50  0.0000E+000
1083.00  0.0000E+000
1083.50  0.0000E+000
1084.00  0.0000E+000
1084.50  0.0000E+000
1085.00  0.0000E+000
1085.50  0.0000E+000
1086.00  0.0000E+000
1086.50  0.0000E+000
1087.00  0.0000E+000
1087.50  0.0000E+000
1088.00  0.0000E+000
1088.50  0.0000E+000
1089.00  0.0000E+000
1089.50  0.0000E+000
1090.00  0.0000E+000
1090.50  0.0000E+000
1091.00  0.0000E+000
1091.50  0.0000E+000
1092.00  0.0000E+000
1092.50  0.0000E+000
1093.00  0.0000E+000
1093.50  0.0000E+000
1094.00  0.0000E+000
1094.50  0.0000E+000
1095.00  0.0000E+000
1095.50  0.0000E+000
1096.00  0.0000E+000
1096.50  0.0000E+000
1097.00  0.0000E+000
1097.50  0.0000E+000
1098.00  0.0000E+000
1098.50  0.0000E+000
1099.00  0.0000E+000
1099.50  0.0000E+000
1100.00  0.0000E+000
1100.50  0.0000E+000
1101.00  0.0000E+000
1101.50  0.0000E+000
1102.00  0.0000E+000
1102.50  0.0000E+000
1103.00  0.0000E+000
1103.50  0.0000E+000
1104.00  0.0000E+000
1104.50  0.0000E+000
1105.00  0.0000E+000
1105.50  0.0000E+000
1106.00  0.0000E+000
1106.50  0.0000E+000
1107.00  0.0000E+000
1107.50  0.0000E+000
1108.00  0.0000E+000
1108.50  0.0000E+000
1109.00  0.0000E+000
1109.50  0.0000E+000
1110.00  0.0000E+000
1110.50  0.0000E+000
1111.00  0.0000E+000
1111.50  0.0000E+000
1112.00  0.0000E+000
1112.50  0.0000E+000
1113.00  0.0000E+000
1113.50  0.0000E+000
1114.00  0.0000E+000
1114.50  0.0000E+000
1115.00  0.0000E+000
1115.50  0.0000E+000
1116.00  0.0000E+000
1116.50  0.0000E+000
1117.00  0.0000E+000
1117.50  0.0000E+000
1118.00  0.0000E+000
1118.50  0.0000E+000
1119.00  0.0000E+000
1119.50  0.0000E+000
1120.00  0.0000E+000
1120.50  0.0000E+000
1121.00  0.0000E+000
1121.50  0.0000E+000
1122.00  0.0000E+000
1122.50  0.0000E+000
1123.00  0.0000E+000
1123.50  0.0000E+000
1124.00  0.0000E+000
1124.50  0.0000E+000
1125.00  0.0000E+000
1125.50  0.0000E+000
1126.00  0.0000E+000
1126.50  0.0000E+000
1127.00  0.0000E+000
1127.50  0.0000E+000
: 6
