" File: 160128_ReferenceSpectra\12.IRR
" RAD->  Wave:366.44nm  Pix:434  Val:  0.000  Time:170ms  Avg:5  Sm:1  Sg:1  Tc:off  SNAP  Xt:1  Ch:1  Xtrig wnmcal >RAD-IS6.CAL
 180.00  0.0000E+000
 180.50  0.0000E+000
 181.00  0.0000E+000
 181.50  0.0000E+000
 182.00  0.0000E+000
 182.50  0.0000E+000
 183.00  0.0000E+000
 183.50  0.0000E+000
 184.00  0.0000E+000
 184.50  0.0000E+000
 185.00  0.0000E+000
 185.50  0.0000E+000
 186.00  0.0000E+000
 186.50  0.0000E+000
 187.00  0.0000E+000
 187.50  0.0000E+000
 188.00  0.0000E+000
 188.50  0.0000E+000
 189.00  0.0000E+000
 189.50  0.0000E+000
 190.00  0.0000E+000
 190.50  0.0000E+000
 191.00  0.0000E+000
 191.50  0.0000E+000
 192.00  0.0000E+000
 192.50  0.0000E+000
 193.00  0.0000E+000
 193.50  0.0000E+000
 194.00  0.0000E+000
 194.50  0.0000E+000
 195.00  0.0000E+000
 195.50  0.0000E+000
 196.00  0.0000E+000
 196.50  0.0000E+000
 197.00  0.0000E+000
 197.50  0.0000E+000
 198.00  0.0000E+000
 198.50  0.0000E+000
 199.00  0.0000E+000
 199.50  0.0000E+000
 200.00  0.0000E+000
 200.50  0.0000E+000
 201.00  0.0000E+000
 201.50  0.0000E+000
 202.00  0.0000E+000
 202.50  0.0000E+000
 203.00  0.0000E+000
 203.50  0.0000E+000
 204.00  0.0000E+000
 204.50  0.0000E+000
 205.00  0.0000E+000
 205.50  0.0000E+000
 206.00  0.0000E+000
 206.50  0.0000E+000
 207.00  0.0000E+000
 207.50  0.0000E+000
 208.00  0.0000E+000
 208.50  0.0000E+000
 209.00  0.0000E+000
 209.50  0.0000E+000
 210.00  0.0000E+000
 210.50  0.0000E+000
 211.00  0.0000E+000
 211.50  0.0000E+000
 212.00  0.0000E+000
 212.50  0.0000E+000
 213.00  0.0000E+000
 213.50  0.0000E+000
 214.00  0.0000E+000
 214.50  0.0000E+000
 215.00  0.0000E+000
 215.50  0.0000E+000
 216.00  0.0000E+000
 216.50  0.0000E+000
 217.00  0.0000E+000
 217.50  0.0000E+000
 218.00  0.0000E+000
 218.50  0.0000E+000
 219.00  0.0000E+000
 219.50  0.0000E+000
 220.00  0.0000E+000
 220.50  0.0000E+000
 221.00  0.0000E+000
 221.50  0.0000E+000
 222.00  0.0000E+000
 222.50  0.0000E+000
 223.00  0.0000E+000
 223.50  0.0000E+000
 224.00  0.0000E+000
 224.50  0.0000E+000
 225.00  0.0000E+000
 225.50  0.0000E+000
 226.00  0.0000E+000
 226.50  0.0000E+000
 227.00  0.0000E+000
 227.50  0.0000E+000
 228.00  0.0000E+000
 228.50  0.0000E+000
 229.00  0.0000E+000
 229.50  0.0000E+000
 230.00  0.0000E+000
 230.50  0.0000E+000
 231.00  0.0000E+000
 231.50  0.0000E+000
 232.00  0.0000E+000
 232.50  0.0000E+000
 233.00  0.0000E+000
 233.50  0.0000E+000
 234.00  0.0000E+000
 234.50  0.0000E+000
 235.00  0.0000E+000
 235.50  0.0000E+000
 236.00  0.0000E+000
 236.50  0.0000E+000
 237.00  0.0000E+000
 237.50  0.0000E+000
 238.00  0.0000E+000
 238.50  0.0000E+000
 239.00  0.0000E+000
 239.50  0.0000E+000
 240.00  0.0000E+000
 240.50  0.0000E+000
 241.00  0.0000E+000
 241.50  0.0000E+000
 242.00  0.0000E+000
 242.50  0.0000E+000
 243.00  0.0000E+000
 243.50  0.0000E+000
 244.00  0.0000E+000
 244.50  0.0000E+000
 245.00  0.0000E+000
 245.50  0.0000E+000
 246.00  0.0000E+000
 246.50  0.0000E+000
 247.00  0.0000E+000
 247.50  0.0000E+000
 248.00  0.0000E+000
 248.50  0.0000E+000
 249.00  0.0000E+000
 249.50  0.0000E+000
 250.00  0.0000E+000
 250.50  0.0000E+000
 251.00  0.0000E+000
 251.50  0.0000E+000
 252.00  0.0000E+000
 252.50  0.0000E+000
 253.00  0.0000E+000
 253.50  0.0000E+000
 254.00  0.0000E+000
 254.50  0.0000E+000
 255.00  0.0000E+000
 255.50  0.0000E+000
 256.00  0.0000E+000
 256.50  0.0000E+000
 257.00  0.0000E+000
 257.50  0.0000E+000
 258.00  0.0000E+000
 258.50  0.0000E+000
 259.00  0.0000E+000
 259.50  0.0000E+000
 260.00  0.0000E+000
 260.50  0.0000E+000
 261.00  0.0000E+000
 261.50  0.0000E+000
 262.00  0.0000E+000
 262.50  0.0000E+000
 263.00  0.0000E+000
 263.50  0.0000E+000
 264.00  0.0000E+000
 264.50  0.0000E+000
 265.00  0.0000E+000
 265.50  0.0000E+000
 266.00  0.0000E+000
 266.50  0.0000E+000
 267.00  0.0000E+000
 267.50  0.0000E+000
 268.00  0.0000E+000
 268.50  0.0000E+000
 269.00  0.0000E+000
 269.50  0.0000E+000
 270.00  0.0000E+000
 270.50  0.0000E+000
 271.00  0.0000E+000
 271.50  0.0000E+000
 272.00  0.0000E+000
 272.50  0.0000E+000
 273.00  0.0000E+000
 273.50  0.0000E+000
 274.00  0.0000E+000
 274.50  0.0000E+000
 275.00  0.0000E+000
 275.50  0.0000E+000
 276.00  0.0000E+000
 276.50  0.0000E+000
 277.00  0.0000E+000
 277.50  0.0000E+000
 278.00  0.0000E+000
 278.50  0.0000E+000
 279.00  0.0000E+000
 279.50  0.0000E+000
 280.00  0.0000E+000
 280.50  0.0000E+000
 281.00  0.0000E+000
 281.50  0.0000E+000
 282.00  0.0000E+000
 282.50  0.0000E+000
 283.00  0.0000E+000
 283.50  0.0000E+000
 284.00  0.0000E+000
 284.50  0.0000E+000
 285.00  0.0000E+000
 285.50  0.0000E+000
 286.00  0.0000E+000
 286.50  0.0000E+000
 287.00  0.0000E+000
 287.50  0.0000E+000
 288.00  0.0000E+000
 288.50  0.0000E+000
 289.00  0.0000E+000
 289.50  0.0000E+000
 290.00  0.0000E+000
 290.50  0.0000E+000
 291.00  0.0000E+000
 291.50  0.0000E+000
 292.00  0.0000E+000
 292.50  0.0000E+000
 293.00  0.0000E+000
 293.50  0.0000E+000
 294.00  0.0000E+000
 294.50  0.0000E+000
 295.00  0.0000E+000
 295.50  0.0000E+000
 296.00  0.0000E+000
 296.50  0.0000E+000
 297.00  0.0000E+000
 297.50  0.0000E+000
 298.00  0.0000E+000
 298.50  0.0000E+000
 299.00  0.0000E+000
 299.50  0.0000E+000
 300.00  0.0000E+000
 300.50  0.0000E+000
 301.00  0.0000E+000
 301.50  0.0000E+000
 302.00  0.0000E+000
 302.50  0.0000E+000
 303.00  0.0000E+000
 303.50  0.0000E+000
 304.00  0.0000E+000
 304.50  0.0000E+000
 305.00  0.0000E+000
 305.50  0.0000E+000
 306.00  0.0000E+000
 306.50  0.0000E+000
 307.00  0.0000E+000
 307.50  0.0000E+000
 308.00  0.0000E+000
 308.50  0.0000E+000
 309.00  0.0000E+000
 309.50  0.0000E+000
 310.00  0.0000E+000
 310.50  0.0000E+000
 311.00  0.0000E+000
 311.50  0.0000E+000
 312.00  0.0000E+000
 312.50  0.0000E+000
 313.00  0.0000E+000
 313.50  0.0000E+000
 314.00  0.0000E+000
 314.50  0.0000E+000
 315.00  0.0000E+000
 315.50  0.0000E+000
 316.00  0.0000E+000
 316.50  0.0000E+000
 317.00  0.0000E+000
 317.50  0.0000E+000
 318.00  0.0000E+000
 318.50  0.0000E+000
 319.00  0.0000E+000
 319.50  0.0000E+000
 320.00  0.0000E+000
 320.50  0.0000E+000
 321.00  0.0000E+000
 321.50  0.0000E+000
 322.00  0.0000E+000
 322.50  0.0000E+000
 323.00  0.0000E+000
 323.50  0.0000E+000
 324.00  0.0000E+000
 324.50  0.0000E+000
 325.00  0.0000E+000
 325.50  0.0000E+000
 326.00  0.0000E+000
 326.50  0.0000E+000
 327.00  0.0000E+000
 327.50  0.0000E+000
 328.00  0.0000E+000
 328.50  0.0000E+000
 329.00  0.0000E+000
 329.50  0.0000E+000
 330.00  0.0000E+000
 330.50  0.0000E+000
 331.00  0.0000E+000
 331.50  0.0000E+000
 332.00  0.0000E+000
 332.50  0.0000E+000
 333.00  0.0000E+000
 333.50  0.0000E+000
 334.00  0.0000E+000
 334.50  0.0000E+000
 335.00  0.0000E+000
 335.50  0.0000E+000
 336.00  0.0000E+000
 336.50  0.0000E+000
 337.00  0.0000E+000
 337.50  0.0000E+000
 338.00  0.0000E+000
 338.50  0.0000E+000
 339.00  0.0000E+000
 339.50  0.0000E+000
 340.00  0.0000E+000
 340.50  0.0000E+000
 341.00  0.0000E+000
 341.50  0.0000E+000
 342.00  0.0000E+000
 342.50  0.0000E+000
 343.00  0.0000E+000
 343.50  0.0000E+000
 344.00  0.0000E+000
 344.50  0.0000E+000
 345.00  0.0000E+000
 345.50  0.0000E+000
 346.00  0.0000E+000
 346.50  0.0000E+000
 347.00  0.0000E+000
 347.50  0.0000E+000
 348.00  0.0000E+000
 348.50  0.0000E+000
 349.00  0.0000E+000
 349.50  0.0000E+000
 350.00  0.0000E+000
 350.50  0.0000E+000
 351.00  0.0000E+000
 351.50  0.0000E+000
 352.00  0.0000E+000
 352.50  0.0000E+000
 353.00  0.0000E+000
 353.50  0.0000E+000
 354.00  0.0000E+000
 354.50  0.0000E+000
 355.00  0.0000E+000
 355.50  0.0000E+000
 356.00  0.0000E+000
 356.50  0.0000E+000
 357.00  0.0000E+000
 357.50  0.0000E+000
 358.00  0.0000E+000
 358.50  0.0000E+000
 359.00  0.0000E+000
 359.50  0.0000E+000
 360.00  0.0000E+000
 360.50  0.0000E+000
 361.00  0.0000E+000
 361.50  2.1022E-008
 362.00  9.7404E-008
 362.50  2.1553E-007
 363.00  3.4560E-007
 363.50  3.9557E-007
 364.00  4.3432E-007
 364.50  4.2139E-007
 365.00  3.1925E-007
 365.50  2.6133E-007
 366.00  1.9108E-007
 366.50  1.5788E-007
 367.00  1.3819E-007
 367.50  1.8291E-007
 368.00  1.9976E-007
 368.50  2.3391E-007
 369.00  3.4313E-007
 369.50  3.7194E-007
 370.00  4.2295E-007
 370.50  5.0481E-007
 371.00  5.4226E-007
 371.50  6.1661E-007
 372.00  6.9576E-007
 372.50  6.9466E-007
 373.00  6.3067E-007
 373.50  4.7998E-007
 374.00  3.7363E-007
 374.50  2.9050E-007
 375.00  2.5563E-007
 375.50  3.2939E-007
 376.00  4.0879E-007
 376.50  4.5611E-007
 377.00  5.3028E-007
 377.50  5.7876E-007
 378.00  5.1915E-007
 378.50  4.3353E-007
 379.00  3.9224E-007
 379.50  2.7217E-007
 380.00  2.0172E-007
 380.50  1.8595E-007
 381.00  1.7065E-007
 381.50  1.8072E-007
 382.00  2.3546E-007
 382.50  2.3741E-007
 383.00  3.2086E-007
 383.50  3.7165E-007
 384.00  4.7960E-007
 384.50  4.8406E-007
 385.00  3.8824E-007
 385.50  2.9757E-007
 386.00  1.8671E-007
 386.50  1.0557E-007
 387.00  1.1901E-007
 387.50  1.4356E-007
 388.00  1.4866E-007
 388.50  1.2133E-007
 389.00  7.4456E-008
 389.50  1.7700E-008
 390.00  0.0000E+000
 390.50  0.0000E+000
 391.00  0.0000E+000
 391.50  2.1123E-009
 392.00  5.0466E-008
 392.50  1.3618E-007
 393.00  2.3501E-007
 393.50  2.4592E-007
 394.00  2.7354E-007
 394.50  3.2285E-007
 395.00  2.7422E-007
 395.50  2.6404E-007
 396.00  2.2526E-007
 396.50  1.9352E-007
 397.00  1.3116E-007
 397.50  7.1517E-008
 398.00  4.7674E-008
 398.50  5.9781E-008
 399.00  1.0313E-007
 399.50  1.7752E-007
 400.00  2.2838E-007
 400.50  3.3573E-007
 401.00  3.7269E-007
 401.50  4.0266E-007
 402.00  4.4212E-007
 402.50  4.7459E-007
 403.00  5.3463E-007
 403.50  6.0447E-007
 404.00  6.4880E-007
 404.50  5.5403E-007
 405.00  4.1958E-007
 405.50  2.0703E-007
 406.00  4.6480E-008
 406.50  0.0000E+000
 407.00  0.0000E+000
 407.50  0.0000E+000
 408.00  0.0000E+000
 408.50  0.0000E+000
 409.00  0.0000E+000
 409.50  0.0000E+000
 410.00  0.0000E+000
 410.50  0.0000E+000
 411.00  0.0000E+000
 411.50  0.0000E+000
 412.00  0.0000E+000
 412.50  0.0000E+000
 413.00  0.0000E+000
 413.50  0.0000E+000
 414.00  1.6359E-009
 414.50  2.5477E-008
 415.00  8.4056E-008
 415.50  1.6424E-007
 416.00  2.1160E-007
 416.50  2.0273E-007
 417.00  1.7001E-007
 417.50  2.4946E-007
 418.00  2.1334E-007
 418.50  2.6417E-007
 419.00  3.4501E-007
 419.50  4.0636E-007
 420.00  4.7265E-007
 420.50  5.9029E-007
 421.00  7.5899E-007
 421.50  8.7392E-007
 422.00  9.3270E-007
 422.50  9.3347E-007
 423.00  9.3700E-007
 423.50  9.3028E-007
 424.00  9.4633E-007
 424.50  1.0156E-006
 425.00  1.1036E-006
 425.50  1.0420E-006
 426.00  9.5432E-007
 426.50  9.5291E-007
 427.00  9.0358E-007
 427.50  9.7236E-007
 428.00  9.8355E-007
 428.50  9.6501E-007
 429.00  8.7961E-007
 429.50  7.2935E-007
 430.00  6.4396E-007
 430.50  6.5737E-007
 431.00  7.0202E-007
 431.50  7.6659E-007
 432.00  7.8600E-007
 432.50  7.7362E-007
 433.00  7.1361E-007
 433.50  6.8482E-007
 434.00  6.7790E-007
 434.50  7.2717E-007
 435.00  7.6226E-007
 435.50  7.0466E-007
 436.00  5.8712E-007
 436.50  5.1495E-007
 437.00  4.7960E-007
 437.50  4.8489E-007
 438.00  5.8175E-007
 438.50  7.1981E-007
 439.00  7.9246E-007
 439.50  8.0610E-007
 440.00  8.2946E-007
 440.50  7.2962E-007
 441.00  6.6180E-007
 441.50  6.8101E-007
 442.00  7.2734E-007
 442.50  7.2228E-007
 443.00  6.8456E-007
 443.50  6.0539E-007
 444.00  5.3547E-007
 444.50  4.9209E-007
 445.00  5.3440E-007
 445.50  5.3432E-007
 446.00  5.6444E-007
 446.50  5.9825E-007
 447.00  5.9646E-007
 447.50  5.6530E-007
 448.00  5.2025E-007
 448.50  4.0688E-007
 449.00  2.8581E-007
 449.50  2.6947E-007
 450.00  2.6217E-007
 450.50  2.7620E-007
 451.00  3.0424E-007
 451.50  3.1035E-007
 452.00  2.7240E-007
 452.50  2.4369E-007
 453.00  2.3978E-007
 453.50  2.8338E-007
 454.00  3.9431E-007
 454.50  4.7919E-007
 455.00  5.3538E-007
 455.50  5.7825E-007
 456.00  5.4395E-007
 456.50  4.7616E-007
 457.00  4.4569E-007
 457.50  4.3553E-007
 458.00  4.3150E-007
 458.50  4.4768E-007
 459.00  4.6118E-007
 459.50  4.6878E-007
 460.00  4.6328E-007
 460.50  4.2226E-007
 461.00  4.0918E-007
 461.50  3.9692E-007
 462.00  3.6490E-007
 462.50  3.6552E-007
 463.00  3.3942E-007
 463.50  3.0299E-007
 464.00  2.7012E-007
 464.50  2.4891E-007
 465.00  2.1781E-007
 465.50  2.1975E-007
 466.00  2.6235E-007
 466.50  3.3505E-007
 467.00  4.1988E-007
 467.50  5.6263E-007
 468.00  7.0433E-007
 468.50  7.5380E-007
 469.00  8.0772E-007
 469.50  8.5660E-007
 470.00  8.1149E-007
 470.50  8.2603E-007
 471.00  8.2801E-007
 471.50  7.5732E-007
 472.00  7.2612E-007
 472.50  6.6761E-007
 473.00  5.8330E-007
 473.50  5.6156E-007
 474.00  5.0687E-007
 474.50  4.3451E-007
 475.00  3.8245E-007
 475.50  3.4704E-007
 476.00  3.4987E-007
 476.50  3.6220E-007
 477.00  3.8257E-007
 477.50  4.0343E-007
 478.00  4.2458E-007
 478.50  4.5504E-007
 479.00  4.2866E-007
 479.50  4.2964E-007
 480.00  4.2989E-007
 480.50  4.1946E-007
 481.00  4.2839E-007
 481.50  4.5550E-007
 482.00  4.4686E-007
 482.50  4.2798E-007
 483.00  4.1202E-007
 483.50  3.8554E-007
 484.00  3.6151E-007
 484.50  3.8349E-007
 485.00  4.0383E-007
 485.50  4.6169E-007
 486.00  5.0274E-007
 486.50  5.3236E-007
 487.00  5.6184E-007
 487.50  5.4399E-007
 488.00  5.0563E-007
 488.50  5.2419E-007
 489.00  4.9766E-007
 489.50  5.1938E-007
 490.00  5.5218E-007
 490.50  5.5584E-007
 491.00  5.7547E-007
 491.50  5.8994E-007
 492.00  5.6692E-007
 492.50  5.3964E-007
 493.00  5.0389E-007
 493.50  4.4088E-007
 494.00  4.2339E-007
 494.50  4.4052E-007
 495.00  4.8189E-007
 495.50  5.5735E-007
 496.00  6.3636E-007
 496.50  6.7656E-007
 497.00  6.8597E-007
 497.50  6.8498E-007
 498.00  6.5972E-007
 498.50  6.3742E-007
 499.00  6.4343E-007
 499.50  6.7026E-007
 500.00  6.7983E-007
 500.50  6.8692E-007
 501.00  7.0020E-007
 501.50  7.2748E-007
 502.00  7.5579E-007
 502.50  7.3544E-007
 503.00  7.1626E-007
 503.50  6.9010E-007
 504.00  6.1995E-007
 504.50  5.5751E-007
 505.00  5.3706E-007
 505.50  5.1074E-007
 506.00  5.3054E-007
 506.50  5.8737E-007
 507.00  7.0140E-007
 507.50  8.0923E-007
 508.00  8.8510E-007
 508.50  9.3149E-007
 509.00  9.8077E-007
 509.50  1.0106E-006
 510.00  1.0669E-006
 510.50  1.0565E-006
 511.00  1.0316E-006
 511.50  9.7383E-007
 512.00  8.5860E-007
 512.50  7.9683E-007
 513.00  7.7848E-007
 513.50  7.7435E-007
 514.00  8.2842E-007
 514.50  8.9853E-007
 515.00  8.9057E-007
 515.50  9.1293E-007
 516.00  9.3593E-007
 516.50  1.0380E-006
 517.00  1.1850E-006
 517.50  1.3442E-006
 518.00  1.4853E-006
 518.50  1.5514E-006
 519.00  1.5355E-006
 519.50  1.5772E-006
 520.00  1.6088E-006
 520.50  1.5712E-006
 521.00  1.5506E-006
 521.50  1.5616E-006
 522.00  1.5773E-006
 522.50  1.6833E-006
 523.00  1.7854E-006
 523.50  1.8734E-006
 524.00  1.9674E-006
 524.50  1.9932E-006
 525.00  2.0704E-006
 525.50  2.2409E-006
 526.00  2.2872E-006
 526.50  2.3979E-006
 527.00  2.4709E-006
 527.50  2.4673E-006
 528.00  2.4986E-006
 528.50  2.5080E-006
 529.00  2.5245E-006
 529.50  2.5608E-006
 530.00  2.5591E-006
 530.50  2.5684E-006
 531.00  2.5455E-006
 531.50  2.4677E-006
 532.00  2.4211E-006
 532.50  2.3993E-006
 533.00  2.3863E-006
 533.50  2.4504E-006
 534.00  2.5613E-006
 534.50  2.6581E-006
 535.00  2.7920E-006
 535.50  2.9108E-006
 536.00  3.0395E-006
 536.50  3.1675E-006
 537.00  3.3234E-006
 537.50  3.5134E-006
 538.00  3.7037E-006
 538.50  3.8760E-006
 539.00  4.0891E-006
 539.50  4.2800E-006
 540.00  4.4168E-006
 540.50  4.5559E-006
 541.00  4.7064E-006
 541.50  4.8873E-006
 542.00  5.0157E-006
 542.50  5.2149E-006
 543.00  5.3786E-006
 543.50  5.5178E-006
 544.00  5.6719E-006
 544.50  5.8288E-006
 545.00  5.9646E-006
 545.50  6.1010E-006
 546.00  6.3015E-006
 546.50  6.5414E-006
 547.00  6.8700E-006
 547.50  7.3301E-006
 548.00  7.8527E-006
 548.50  8.3081E-006
 549.00  8.7805E-006
 549.50  9.2380E-006
 550.00  9.6204E-006
 550.50  1.0096E-005
 551.00  1.0604E-005
 551.50  1.1118E-005
 552.00  1.1729E-005
 552.50  1.2411E-005
 553.00  1.3100E-005
 553.50  1.3840E-005
 554.00  1.4599E-005
 554.50  1.5401E-005
 555.00  1.6236E-005
 555.50  1.7110E-005
 556.00  1.8110E-005
 556.50  1.9202E-005
 557.00  2.0347E-005
 557.50  2.1585E-005
 558.00  2.2905E-005
 558.50  2.4263E-005
 559.00  2.5713E-005
 559.50  2.7221E-005
 560.00  2.8859E-005
 560.50  3.0637E-005
 561.00  3.2546E-005
 561.50  3.4675E-005
 562.00  3.6941E-005
 562.50  3.9273E-005
 563.00  4.1697E-005
 563.50  4.4433E-005
 564.00  4.7185E-005
 564.50  5.0323E-005
 565.00  5.3735E-005
 565.50  5.7276E-005
 566.00  6.0950E-005
 566.50  6.4734E-005
 567.00  6.8691E-005
 567.50  7.2916E-005
 568.00  7.7448E-005
 568.50  8.2387E-005
 569.00  8.7917E-005
 569.50  9.3853E-005
 570.00  1.0024E-004
 570.50  1.0699E-004
 571.00  1.1428E-004
 571.50  1.2200E-004
 572.00  1.3026E-004
 572.50  1.3918E-004
 573.00  1.4862E-004
 573.50  1.5860E-004
 574.00  1.6937E-004
 574.50  1.8090E-004
 575.00  1.9327E-004
 575.50  2.0675E-004
 576.00  2.2119E-004
 576.50  2.3653E-004
 577.00  2.5298E-004
 577.50  2.7061E-004
 578.00  2.8937E-004
 578.50  3.0925E-004
 579.00  3.3013E-004
 579.50  3.5204E-004
 580.00  3.7520E-004
 580.50  3.9973E-004
 581.00  4.2623E-004
 581.50  4.5438E-004
 582.00  4.8395E-004
 582.50  5.1478E-004
 583.00  5.4695E-004
 583.50  5.8077E-004
 584.00  6.1660E-004
 584.50  6.5451E-004
 585.00  6.9455E-004
 585.50  7.3667E-004
 586.00  7.8107E-004
 586.50  8.2834E-004
 587.00  8.7918E-004
 587.50  9.3426E-004
 588.00  9.9299E-004
 588.50  1.0553E-003
 589.00  1.1207E-003
 589.50  1.1886E-003
 590.00  1.2588E-003
 590.50  1.3317E-003
 591.00  1.4066E-003
 591.50  1.4825E-003
 592.00  1.5591E-003
 592.50  1.6358E-003
 593.00  1.7107E-003
 593.50  1.7830E-003
 594.00  1.8509E-003
 594.50  1.9126E-003
 595.00  1.9671E-003
 595.50  2.0149E-003
 596.00  2.0553E-003
 596.50  2.0868E-003
 597.00  2.1068E-003
 597.50  2.1118E-003
 598.00  2.0996E-003
 598.50  2.0697E-003
 599.00  2.0226E-003
 599.50  1.9599E-003
 600.00  1.8844E-003
 600.50  1.7985E-003
 601.00  1.7057E-003
 601.50  1.6086E-003
 602.00  1.5095E-003
 602.50  1.4107E-003
 603.00  1.3142E-003
 603.50  1.2223E-003
 604.00  1.1364E-003
 604.50  1.0561E-003
 605.00  9.8167E-004
 605.50  9.1173E-004
 606.00  8.4642E-004
 606.50  7.8577E-004
 607.00  7.2964E-004
 607.50  6.7714E-004
 608.00  6.2777E-004
 608.50  5.8117E-004
 609.00  5.3733E-004
 609.50  4.9658E-004
 610.00  4.5908E-004
 610.50  4.2507E-004
 611.00  3.9364E-004
 611.50  3.6431E-004
 612.00  3.3659E-004
 612.50  3.1083E-004
 613.00  2.8674E-004
 613.50  2.6496E-004
 614.00  2.4544E-004
 614.50  2.2773E-004
 615.00  2.1178E-004
 615.50  1.9734E-004
 616.00  1.8388E-004
 616.50  1.7142E-004
 617.00  1.5989E-004
 617.50  1.4904E-004
 618.00  1.3904E-004
 618.50  1.2999E-004
 619.00  1.2178E-004
 619.50  1.1427E-004
 620.00  1.0733E-004
 620.50  1.0072E-004
 621.00  9.4568E-005
 621.50  8.8962E-005
 622.00  8.3674E-005
 622.50  7.8756E-005
 623.00  7.4211E-005
 623.50  7.0125E-005
 624.00  6.6471E-005
 624.50  6.3146E-005
 625.00  6.0039E-005
 625.50  5.7048E-005
 626.00  5.4035E-005
 626.50  5.1175E-005
 627.00  4.8634E-005
 627.50  4.6469E-005
 628.00  4.4505E-005
 628.50  4.2604E-005
 629.00  4.0891E-005
 629.50  3.9065E-005
 630.00  3.7222E-005
 630.50  3.5611E-005
 631.00  3.4124E-005
 631.50  3.2663E-005
 632.00  3.1381E-005
 632.50  3.0203E-005
 633.00  2.9429E-005
 633.50  2.8681E-005
 634.00  2.7872E-005
 634.50  2.7329E-005
 635.00  2.6708E-005
 635.50  2.6042E-005
 636.00  2.5312E-005
 636.50  2.4684E-005
 637.00  2.4104E-005
 637.50  2.3238E-005
 638.00  2.2616E-005
 638.50  2.2119E-005
 639.00  2.1195E-005
 639.50  2.0149E-005
 640.00  1.9249E-005
 640.50  1.8370E-005
 641.00  1.7819E-005
 641.50  1.7630E-005
 642.00  1.7495E-005
 642.50  1.7286E-005
 643.00  1.6836E-005
 643.50  1.6501E-005
 644.00  1.5906E-005
 644.50  1.5216E-005
 645.00  1.4762E-005
 645.50  1.4307E-005
 646.00  1.3753E-005
 646.50  1.3482E-005
 647.00  1.3320E-005
 647.50  1.2903E-005
 648.00  1.2643E-005
 648.50  1.2417E-005
 649.00  1.2037E-005
 649.50  1.1587E-005
 650.00  1.1518E-005
 650.50  1.1279E-005
 651.00  1.0979E-005
 651.50  1.0986E-005
 652.00  1.0781E-005
 652.50  1.0627E-005
 653.00  1.0589E-005
 653.50  1.0496E-005
 654.00  1.0375E-005
 654.50  1.0370E-005
 655.00  1.0165E-005
 655.50  1.0134E-005
 656.00  1.0276E-005
 656.50  1.0667E-005
 657.00  1.0898E-005
 657.50  1.0942E-005
 658.00  1.0734E-005
 658.50  1.0416E-005
 659.00  9.8624E-006
 659.50  9.2704E-006
 660.00  8.6767E-006
 660.50  8.1534E-006
 661.00  7.6824E-006
 661.50  7.2532E-006
 662.00  7.1179E-006
 662.50  7.1649E-006
 663.00  7.3135E-006
 663.50  7.8576E-006
 664.00  8.5659E-006
 664.50  8.9323E-006
 665.00  9.0394E-006
 665.50  8.7428E-006
 666.00  7.9705E-006
 666.50  7.2888E-006
 667.00  6.8620E-006
 667.50  6.5512E-006
 668.00  6.3922E-006
 668.50  6.2561E-006
 669.00  6.2691E-006
 669.50  6.2950E-006
 670.00  6.3083E-006
 670.50  6.3331E-006
 671.00  6.5832E-006
 671.50  6.9393E-006
 672.00  7.2906E-006
 672.50  7.6355E-006
 673.00  7.9833E-006
 673.50  7.9224E-006
 674.00  7.5777E-006
 674.50  7.2437E-006
 675.00  6.7272E-006
 675.50  6.3446E-006
 676.00  6.3106E-006
 676.50  6.4242E-006
 677.00  6.4814E-006
 677.50  6.4201E-006
 678.00  6.2753E-006
 678.50  5.8158E-006
 679.00  5.3933E-006
 679.50  5.2119E-006
 680.00  4.9384E-006
 680.50  4.7429E-006
 681.00  4.6352E-006
 681.50  4.3263E-006
 682.00  4.3349E-006
 682.50  4.5076E-006
 683.00  4.5895E-006
 683.50  4.8233E-006
 684.00  4.9553E-006
 684.50  4.9088E-006
 685.00  5.2214E-006
 685.50  5.2433E-006
 686.00  5.1226E-006
 686.50  5.5196E-006
 687.00  6.0545E-006
 687.50  6.8009E-006
 688.00  7.7844E-006
 688.50  8.5793E-006
 689.00  8.8686E-006
 689.50  8.6332E-006
 690.00  8.3185E-006
 690.50  7.9689E-006
 691.00  7.6232E-006
 691.50  7.0053E-006
 692.00  6.8753E-006
 692.50  6.0699E-006
 693.00  5.4639E-006
 693.50  5.2275E-006
 694.00  5.2476E-006
 694.50  5.0788E-006
 695.00  5.3946E-006
 695.50  5.7668E-006
 696.00  5.6322E-006
 696.50  5.4190E-006
 697.00  5.1543E-006
 697.50  4.4745E-006
 698.00  3.9365E-006
 698.50  3.7421E-006
 699.00  4.2103E-006
 699.50  4.5186E-006
 700.00  4.6974E-006
 700.50  4.8971E-006
 701.00  4.8818E-006
 701.50  4.4123E-006
 702.00  4.4273E-006
 702.50  4.4083E-006
 703.00  4.4987E-006
 703.50  4.3477E-006
 704.00  4.0474E-006
 704.50  3.9539E-006
 705.00  3.7282E-006
 705.50  3.5968E-006
 706.00  3.8517E-006
 706.50  3.9899E-006
 707.00  3.9920E-006
 707.50  4.0490E-006
 708.00  4.1888E-006
 708.50  3.7616E-006
 709.00  3.6597E-006
 709.50  3.5439E-006
 710.00  3.6586E-006
 710.50  3.5644E-006
 711.00  3.4968E-006
 711.50  3.3138E-006
 712.00  3.0868E-006
 712.50  2.8265E-006
 713.00  2.5662E-006
 713.50  2.4305E-006
 714.00  2.2695E-006
 714.50  2.3132E-006
 715.00  2.9242E-006
 715.50  3.1690E-006
 716.00  3.3271E-006
 716.50  3.6302E-006
 717.00  3.5226E-006
 717.50  3.0718E-006
 718.00  2.9041E-006
 718.50  2.8594E-006
 719.00  2.7648E-006
 719.50  2.8768E-006
 720.00  3.2791E-006
 720.50  3.6511E-006
 721.00  3.9690E-006
 721.50  4.2258E-006
 722.00  4.4351E-006
 722.50  4.5582E-006
 723.00  4.8623E-006
 723.50  4.9408E-006
 724.00  4.9498E-006
 724.50  4.7977E-006
 725.00  5.0143E-006
 725.50  4.9036E-006
 726.00  4.7224E-006
 726.50  4.9540E-006
 727.00  5.4093E-006
 727.50  5.8682E-006
 728.00  7.1373E-006
 728.50  8.1745E-006
 729.00  7.9676E-006
 729.50  7.6860E-006
 730.00  7.0529E-006
 730.50  6.0454E-006
 731.00  5.7931E-006
 731.50  6.1148E-006
 732.00  6.0452E-006
 732.50  6.4414E-006
 733.00  6.6287E-006
 733.50  6.7486E-006
 734.00  6.6517E-006
 734.50  6.5181E-006
 735.00  5.7029E-006
 735.50  4.8299E-006
 736.00  4.3353E-006
 736.50  3.9388E-006
 737.00  4.1658E-006
 737.50  5.1850E-006
 738.00  5.2249E-006
 738.50  5.0584E-006
 739.00  4.9931E-006
 739.50  3.9129E-006
 740.00  2.5510E-006
 740.50  2.7937E-006
 741.00  2.5812E-006
 741.50  2.7451E-006
 742.00  3.2853E-006
 742.50  3.5070E-006
 743.00  3.6856E-006
 743.50  4.5881E-006
 744.00  5.2790E-006
 744.50  5.6331E-006
 745.00  6.0398E-006
 745.50  6.1068E-006
 746.00  6.1096E-006
 746.50  6.2989E-006
 747.00  6.9954E-006
 747.50  7.7507E-006
 748.00  7.8758E-006
 748.50  7.7178E-006
 749.00  7.5458E-006
 749.50  6.8234E-006
 750.00  6.0781E-006
 750.50  5.6621E-006
 751.00  5.4301E-006
 751.50  5.2982E-006
 752.00  5.3186E-006
 752.50  5.4732E-006
 753.00  5.4775E-006
 753.50  4.8170E-006
 754.00  4.1092E-006
 754.50  3.4556E-006
 755.00  2.8978E-006
 755.50  2.2865E-006
 756.00  2.4737E-006
 756.50  2.3351E-006
 757.00  1.7764E-006
 757.50  1.3719E-006
 758.00  6.2704E-007
 758.50  0.0000E+000
 759.00  0.0000E+000
 759.50  0.0000E+000
 760.00  0.0000E+000
 760.50  0.0000E+000
 761.00  4.5435E-008
 761.50  1.3858E-007
 762.00  5.4982E-008
 762.50  4.7328E-007
 763.00  1.1090E-006
 763.50  1.9791E-006
 764.00  2.5899E-006
 764.50  3.1927E-006
 765.00  2.8765E-006
 765.50  2.6848E-006
 766.00  1.8969E-006
 766.50  1.7885E-006
 767.00  1.7425E-006
 767.50  1.6236E-006
 768.00  1.7836E-006
 768.50  2.0036E-006
 769.00  1.9922E-006
 769.50  2.4004E-006
 770.00  2.6076E-006
 770.50  2.2895E-006
 771.00  2.2257E-006
 771.50  2.5129E-006
 772.00  2.6160E-006
 772.50  3.1535E-006
 773.00  4.0710E-006
 773.50  5.0377E-006
 774.00  5.2353E-006
 774.50  4.7372E-006
 775.00  4.5173E-006
 775.50  3.6381E-006
 776.00  2.8944E-006
 776.50  3.1508E-006
 777.00  3.9631E-006
 777.50  4.8993E-006
 778.00  5.8843E-006
 778.50  6.5328E-006
 779.00  7.2942E-006
 779.50  7.9315E-006
 780.00  8.0523E-006
 780.50  7.7295E-006
 781.00  7.3937E-006
 781.50  5.9886E-006
 782.00  4.5940E-006
 782.50  3.5157E-006
 783.00  3.4142E-006
 783.50  3.0574E-006
 784.00  3.3595E-006
 784.50  4.0916E-006
 785.00  4.7338E-006
 785.50  4.2987E-006
 786.00  4.0801E-006
 786.50  3.5939E-006
 787.00  3.0492E-006
 787.50  2.9385E-006
 788.00  3.6139E-006
 788.50  4.8069E-006
 789.00  5.6812E-006
 789.50  6.0648E-006
 790.00  6.0761E-006
 790.50  5.4657E-006
 791.00  4.0982E-006
 791.50  3.2363E-006
 792.00  2.9012E-006
 792.50  2.6340E-006
 793.00  3.0041E-006
 793.50  3.8767E-006
 794.00  4.7511E-006
 794.50  5.8970E-006
 795.00  6.8766E-006
 795.50  6.9974E-006
 796.00  6.7829E-006
 796.50  6.2131E-006
 797.00  5.0057E-006
 797.50  4.2666E-006
 798.00  3.5727E-006
 798.50  2.5733E-006
 799.00  2.0235E-006
 799.50  1.4937E-006
 800.00  6.6101E-007
 800.50  4.3350E-007
 801.00  2.2482E-007
 801.50  3.8700E-009
 802.00  3.2226E-007
 802.50  1.2410E-006
 803.00  1.9896E-006
 803.50  2.3007E-006
 804.00  3.0025E-006
 804.50  3.4745E-006
 805.00  3.3364E-006
 805.50  3.7910E-006
 806.00  4.8480E-006
 806.50  6.0438E-006
 807.00  7.3174E-006
 807.50  8.0244E-006
 808.00  8.5558E-006
 808.50  8.7316E-006
 809.00  8.4982E-006
 809.50  8.0686E-006
 810.00  8.2542E-006
 810.50  8.1846E-006
 811.00  7.3966E-006
 811.50  6.7579E-006
 812.00  6.2202E-006
 812.50  5.3791E-006
 813.00  5.3626E-006
 813.50  5.3424E-006
 814.00  4.5898E-006
 814.50  4.2394E-006
 815.00  3.6276E-006
 815.50  2.0441E-006
 816.00  9.8972E-007
 816.50  3.2868E-007
 817.00  0.0000E+000
 817.50  0.0000E+000
 818.00  0.0000E+000
 818.50  2.3524E-007
 819.00  7.8286E-007
 819.50  1.2609E-006
 820.00  1.2571E-006
 820.50  1.9587E-006
 821.00  2.4723E-006
 821.50  3.0593E-006
 822.00  4.3644E-006
 822.50  5.7058E-006
 823.00  6.4630E-006
 823.50  6.4913E-006
 824.00  5.7895E-006
 824.50  4.5274E-006
 825.00  3.6229E-006
 825.50  3.6194E-006
 826.00  4.3463E-006
 826.50  4.7159E-006
 827.00  5.0987E-006
 827.50  5.0686E-006
 828.00  4.1535E-006
 828.50  3.7813E-006
 829.00  3.9543E-006
 829.50  4.2492E-006
 830.00  5.1320E-006
 830.50  6.7247E-006
 831.00  6.8970E-006
 831.50  6.9932E-006
 832.00  7.0523E-006
 832.50  7.0051E-006
 833.00  6.9050E-006
 833.50  8.0285E-006
 834.00  8.7181E-006
 834.50  8.8298E-006
 835.00  8.2876E-006
 835.50  7.5621E-006
 836.00  6.4802E-006
 836.50  5.2089E-006
 837.00  4.0739E-006
 837.50  3.3755E-006
 838.00  2.9886E-006
 838.50  3.0528E-006
 839.00  3.7395E-006
 839.50  3.5959E-006
 840.00  2.8765E-006
 840.50  1.5980E-006
 841.00  2.1958E-007
 841.50  0.0000E+000
 842.00  0.0000E+000
 842.50  0.0000E+000
 843.00  0.0000E+000
 843.50  4.1415E-008
 844.00  7.0524E-007
 844.50  7.4561E-007
 845.00  6.2094E-007
 845.50  6.0649E-007
 846.00  4.6935E-007
 846.50  1.4098E-007
 847.00  7.3425E-007
 847.50  1.1431E-006
 848.00  1.0727E-006
 848.50  1.1651E-006
 849.00  9.8557E-007
 849.50  5.6112E-007
 850.00  7.2396E-007
 850.50  9.3028E-007
 851.00  1.0635E-006
 851.50  1.2996E-006
 852.00  1.5503E-006
 852.50  1.7178E-006
 853.00  2.1366E-006
 853.50  2.6985E-006
 854.00  4.8324E-006
 854.50  6.4036E-006
 855.00  7.5244E-006
 855.50  7.6369E-006
 856.00  7.2002E-006
 856.50  5.8753E-006
 857.00  4.5277E-006
 857.50  3.1354E-006
 858.00  2.3972E-006
 858.50  1.7200E-006
 859.00  4.7891E-007
 859.50  1.1592E-008
 860.00  1.8176E-007
 860.50  2.4309E-007
 861.00  4.4808E-007
 861.50  1.1190E-006
 862.00  2.0120E-006
 862.50  2.3294E-006
 863.00  3.5449E-006
 863.50  4.3929E-006
 864.00  4.3002E-006
 864.50  5.4789E-006
 865.00  6.2042E-006
 865.50  5.2951E-006
 866.00  6.1598E-006
 866.50  6.7145E-006
 867.00  5.5227E-006
 867.50  5.4344E-006
 868.00  5.3737E-006
 868.50  5.2385E-006
 869.00  4.3022E-006
 869.50  4.0440E-006
 870.00  2.7244E-006
 870.50  1.8352E-006
 871.00  1.9831E-006
 871.50  2.4198E-006
 872.00  1.4014E-006
 872.50  3.5545E-007
 873.00  0.0000E+000
 873.50  0.0000E+000
 874.00  0.0000E+000
 874.50  0.0000E+000
 875.00  0.0000E+000
 875.50  0.0000E+000
 876.00  1.5296E-006
 876.50  2.2850E-006
 877.00  2.6088E-006
 877.50  1.7293E-006
 878.00  0.0000E+000
 878.50  0.0000E+000
 879.00  0.0000E+000
 879.50  0.0000E+000
 880.00  1.5343E-007
 880.50  7.6782E-007
 881.00  5.3122E-007
 881.50  0.0000E+000
 882.00  0.0000E+000
 882.50  6.0722E-007
 883.00  1.9186E-006
 883.50  3.5209E-006
 884.00  5.4174E-006
 884.50  7.0538E-006
 885.00  7.5611E-006
 885.50  8.8186E-006
 886.00  8.9768E-006
 886.50  7.4912E-006
 887.00  5.6594E-006
 887.50  2.9490E-006
 888.00  3.9008E-007
 888.50  0.0000E+000
 889.00  4.2326E-008
 889.50  4.4470E-007
 890.00  1.7574E-006
 890.50  3.3866E-006
 891.00  4.7459E-006
 891.50  5.9354E-006
 892.00  6.7810E-006
 892.50  7.7346E-006
 893.00  7.4135E-006
 893.50  7.2393E-006
 894.00  6.5123E-006
 894.50  4.7897E-006
 895.00  2.8939E-006
 895.50  2.1794E-006
 896.00  1.3989E-006
 896.50  5.6569E-007
 897.00  1.6486E-006
 897.50  3.4100E-006
 898.00  4.3933E-006
 898.50  5.6545E-006
 899.00  6.7828E-006
 899.50  6.4190E-006
 900.00  5.8736E-006
 900.50  5.7615E-006
 901.00  5.6613E-006
 901.50  5.8426E-006
 902.00  6.2009E-006
 902.50  5.5656E-006
 903.00  4.9381E-006
 903.50  3.5818E-006
 904.00  2.7925E-006
 904.50  1.8441E-006
 905.00  1.5633E-006
 905.50  1.6241E-006
 906.00  2.6010E-006
 906.50  2.7787E-006
 907.00  3.4968E-006
 907.50  4.0379E-006
 908.00  3.7267E-006
 908.50  3.0097E-006
 909.00  2.6023E-006
 909.50  2.8472E-006
 910.00  4.1036E-006
 910.50  5.6244E-006
 911.00  7.5884E-006
 911.50  9.1495E-006
 912.00  9.9273E-006
 912.50  8.9646E-006
 913.00  7.0743E-006
 913.50  5.0868E-006
 914.00  3.2137E-006
 914.50  2.0382E-006
 915.00  1.8326E-006
 915.50  2.7151E-006
 916.00  3.3228E-006
 916.50  3.7543E-006
 917.00  2.9199E-006
 917.50  3.8298E-006
 918.00  2.7975E-006
 918.50  3.9421E-006
 919.00  3.4200E-006
 919.50  3.9733E-006
 920.00  4.3185E-006
 920.50  4.7971E-006
 921.00  4.6773E-006
 921.50  5.5332E-006
 922.00  5.8617E-006
 922.50  6.9131E-006
 923.00  9.4505E-006
 923.50  1.2394E-005
 924.00  1.4149E-005
 924.50  1.6116E-005
 925.00  1.7731E-005
 925.50  1.7345E-005
 926.00  1.8031E-005
 926.50  1.8334E-005
 927.00  1.7333E-005
 927.50  1.5961E-005
 928.00  1.3495E-005
 928.50  1.0540E-005
 929.00  9.9796E-006
 929.50  1.0824E-005
 930.00  1.1359E-005
 930.50  1.2453E-005
 931.00  1.4030E-005
 931.50  1.4292E-005
 932.00  1.3646E-005
 932.50  1.5398E-005
 933.00  1.7051E-005
 933.50  1.6814E-005
 934.00  1.6295E-005
 934.50  1.6490E-005
 935.00  1.5467E-005
 935.50  1.7708E-005
 936.00  2.3737E-005
 936.50  2.8205E-005
 937.00  3.2060E-005
 937.50  3.3733E-005
 938.00  3.2577E-005
 938.50  3.0901E-005
 939.00  2.8560E-005
 939.50  2.6941E-005
 940.00  2.8696E-005
 940.50  2.7899E-005
 941.00  2.6107E-005
 941.50  2.5493E-005
 942.00  2.2203E-005
 942.50  1.7408E-005
 943.00  1.4397E-005
 943.50  1.2421E-005
 944.00  1.4366E-005
 944.50  1.7659E-005
 945.00  2.2841E-005
 945.50  2.5442E-005
 946.00  2.7779E-005
 946.50  2.7233E-005
 947.00  2.6292E-005
 947.50  2.1705E-005
 948.00  2.2347E-005
 948.50  2.1643E-005
 949.00  2.4978E-005
 949.50  2.7552E-005
 950.00  3.1867E-005
 950.50  3.1480E-005
 951.00  3.0564E-005
 951.50  2.7879E-005
 952.00  2.7501E-005
 952.50  2.7865E-005
 953.00  3.2501E-005
 953.50  3.5387E-005
 954.00  3.5886E-005
 954.50  3.5001E-005
 955.00  3.5769E-005
 955.50  3.6284E-005
 956.00  3.4777E-005
 956.50  3.2609E-005
 957.00  2.8986E-005
 957.50  2.1082E-005
 958.00  1.3374E-005
 958.50  1.4187E-005
 959.00  1.6243E-005
 959.50  1.6947E-005
 960.00  2.1643E-005
 960.50  2.4704E-005
 961.00  2.0207E-005
 961.50  1.5290E-005
 962.00  1.5675E-005
 962.50  1.2172E-005
 963.00  1.0589E-005
 963.50  8.5097E-006
 964.00  1.0934E-005
 964.50  8.0374E-006
 965.00  3.8224E-006
 965.50  4.4665E-007
 966.00  0.0000E+000
 966.50  3.9544E-007
 967.00  3.4718E-006
 967.50  8.7082E-006
 968.00  1.2988E-005
 968.50  1.6298E-005
 969.00  1.7193E-005
 969.50  1.8134E-005
 970.00  2.2758E-005
 970.50  2.8200E-005
 971.00  3.1403E-005
 971.50  3.2792E-005
 972.00  3.6448E-005
 972.50  3.5212E-005
 973.00  3.4923E-005
 973.50  3.8718E-005
 974.00  3.8106E-005
 974.50  3.2513E-005
 975.00  2.7569E-005
 975.50  1.4992E-005
 976.00  5.7244E-006
 976.50  1.1816E-006
 977.00  6.0950E-009
 977.50  0.0000E+000
 978.00  0.0000E+000
 978.50  0.0000E+000
 979.00  0.0000E+000
 979.50  2.2156E-006
 980.00  9.7603E-006
 980.50  1.7050E-005
 981.00  2.2654E-005
 981.50  3.5453E-005
 982.00  4.0645E-005
 982.50  3.7595E-005
 983.00  3.6054E-005
 983.50  3.5437E-005
 984.00  2.7635E-005
 984.50  2.3843E-005
 985.00  2.3447E-005
 985.50  2.7936E-005
 986.00  2.5336E-005
 986.50  2.7041E-005
 987.00  2.4452E-005
 987.50  2.4631E-005
 988.00  2.3458E-005
 988.50  2.8804E-005
 989.00  3.7910E-005
 989.50  4.9924E-005
 990.00  5.3546E-005
 990.50  5.5025E-005
 991.00  5.9919E-005
 991.50  5.4952E-005
 992.00  4.8907E-005
 992.50  5.0124E-005
 993.00  4.8855E-005
 993.50  3.9779E-005
 994.00  3.8254E-005
 994.50  4.3315E-005
 995.00  3.4272E-005
 995.50  2.1485E-005
 996.00  1.8653E-005
 996.50  2.8191E-005
 997.00  1.8433E-005
 997.50  2.4105E-005
 998.00  2.7030E-005
 998.50  1.8317E-005
 999.00  2.0825E-006
 999.50  0.0000E+000
1000.00  0.0000E+000
1000.50  0.0000E+000
1001.00  0.0000E+000
1001.50  0.0000E+000
1002.00  0.0000E+000
1002.50  0.0000E+000
1003.00  0.0000E+000
1003.50  0.0000E+000
1004.00  0.0000E+000
1004.50  0.0000E+000
1005.00  0.0000E+000
1005.50  0.0000E+000
1006.00  0.0000E+000
1006.50  0.0000E+000
1007.00  0.0000E+000
1007.50  0.0000E+000
1008.00  0.0000E+000
1008.50  0.0000E+000
1009.00  0.0000E+000
1009.50  0.0000E+000
1010.00  0.0000E+000
1010.50  0.0000E+000
1011.00  0.0000E+000
1011.50  0.0000E+000
1012.00  0.0000E+000
1012.50  0.0000E+000
1013.00  0.0000E+000
1013.50  0.0000E+000
1014.00  0.0000E+000
1014.50  0.0000E+000
1015.00  0.0000E+000
1015.50  0.0000E+000
1016.00  0.0000E+000
1016.50  0.0000E+000
1017.00  0.0000E+000
1017.50  0.0000E+000
1018.00  0.0000E+000
1018.50  0.0000E+000
1019.00  0.0000E+000
1019.50  0.0000E+000
1020.00  0.0000E+000
1020.50  0.0000E+000
1021.00  0.0000E+000
1021.50  0.0000E+000
1022.00  0.0000E+000
1022.50  0.0000E+000
1023.00  0.0000E+000
1023.50  0.0000E+000
1024.00  0.0000E+000
1024.50  0.0000E+000
1025.00  0.0000E+000
1025.50  0.0000E+000
1026.00  0.0000E+000
1026.50  0.0000E+000
1027.00  0.0000E+000
1027.50  0.0000E+000
1028.00  0.0000E+000
1028.50  0.0000E+000
1029.00  0.0000E+000
1029.50  0.0000E+000
1030.00  0.0000E+000
1030.50  0.0000E+000
1031.00  0.0000E+000
1031.50  0.0000E+000
1032.00  0.0000E+000
1032.50  0.0000E+000
1033.00  0.0000E+000
1033.50  0.0000E+000
1034.00  0.0000E+000
1034.50  0.0000E+000
1035.00  0.0000E+000
1035.50  0.0000E+000
1036.00  0.0000E+000
1036.50  0.0000E+000
1037.00  0.0000E+000
1037.50  0.0000E+000
1038.00  0.0000E+000
1038.50  0.0000E+000
1039.00  0.0000E+000
1039.50  0.0000E+000
1040.00  0.0000E+000
1040.50  0.0000E+000
1041.00  0.0000E+000
1041.50  0.0000E+000
1042.00  0.0000E+000
1042.50  0.0000E+000
1043.00  0.0000E+000
1043.50  0.0000E+000
1044.00  0.0000E+000
1044.50  0.0000E+000
1045.00  0.0000E+000
1045.50  0.0000E+000
1046.00  0.0000E+000
1046.50  0.0000E+000
1047.00  0.0000E+000
1047.50  0.0000E+000
1048.00  0.0000E+000
1048.50  0.0000E+000
1049.00  0.0000E+000
1049.50  0.0000E+000
1050.00  0.0000E+000
1050.50  0.0000E+000
1051.00  0.0000E+000
1051.50  0.0000E+000
1052.00  0.0000E+000
1052.50  0.0000E+000
1053.00  0.0000E+000
1053.50  0.0000E+000
1054.00  0.0000E+000
1054.50  0.0000E+000
1055.00  0.0000E+000
1055.50  0.0000E+000
1056.00  0.0000E+000
1056.50  0.0000E+000
1057.00  0.0000E+000
1057.50  0.0000E+000
1058.00  0.0000E+000
1058.50  0.0000E+000
1059.00  0.0000E+000
1059.50  0.0000E+000
1060.00  0.0000E+000
1060.50  0.0000E+000
1061.00  0.0000E+000
1061.50  0.0000E+000
1062.00  0.0000E+000
1062.50  0.0000E+000
1063.00  0.0000E+000
1063.50  0.0000E+000
1064.00  0.0000E+000
1064.50  0.0000E+000
1065.00  0.0000E+000
1065.50  0.0000E+000
1066.00  0.0000E+000
1066.50  0.0000E+000
1067.00  0.0000E+000
1067.50  0.0000E+000
1068.00  0.0000E+000
1068.50  0.0000E+000
1069.00  0.0000E+000
1069.50  0.0000E+000
1070.00  0.0000E+000
1070.50  0.0000E+000
1071.00  0.0000E+000
1071.50  0.0000E+000
1072.00  0.0000E+000
1072.50  0.0000E+000
1073.00  0.0000E+000
1073.50  0.0000E+000
1074.00  0.0000E+000
1074.50  0.0000E+000
1075.00  0.0000E+000
1075.50  0.0000E+000
1076.00  0.0000E+000
1076.50  0.0000E+000
1077.00  0.0000E+000
1077.50  0.0000E+000
1078.00  0.0000E+000
1078.50  0.0000E+000
1079.00  0.0000E+000
1079.50  0.0000E+000
1080.00  0.0000E+000
1080.50  0.0000E+000
1081.00  0.0000E+000
1081.50  0.0000E+000
1082.00  0.0000E+000
1082.50  0.0000E+000
1083.00  0.0000E+000
1083.50  0.0000E+000
1084.00  0.0000E+000
1084.50  0.0000E+000
1085.00  0.0000E+000
1085.50  0.0000E+000
1086.00  0.0000E+000
1086.50  0.0000E+000
1087.00  0.0000E+000
1087.50  0.0000E+000
1088.00  0.0000E+000
1088.50  0.0000E+000
1089.00  0.0000E+000
1089.50  0.0000E+000
1090.00  0.0000E+000
1090.50  0.0000E+000
1091.00  0.0000E+000
1091.50  0.0000E+000
1092.00  0.0000E+000
1092.50  0.0000E+000
1093.00  0.0000E+000
1093.50  0.0000E+000
1094.00  0.0000E+000
1094.50  0.0000E+000
1095.00  0.0000E+000
1095.50  0.0000E+000
1096.00  0.0000E+000
1096.50  0.0000E+000
1097.00  0.0000E+000
1097.50  0.0000E+000
1098.00  0.0000E+000
1098.50  0.0000E+000
1099.00  0.0000E+000
1099.50  0.0000E+000
1100.00  0.0000E+000
1100.50  0.0000E+000
1101.00  0.0000E+000
1101.50  0.0000E+000
1102.00  0.0000E+000
1102.50  0.0000E+000
1103.00  0.0000E+000
1103.50  0.0000E+000
1104.00  0.0000E+000
1104.50  0.0000E+000
1105.00  0.0000E+000
1105.50  0.0000E+000
1106.00  0.0000E+000
1106.50  0.0000E+000
1107.00  0.0000E+000
1107.50  0.0000E+000
1108.00  0.0000E+000
1108.50  0.0000E+000
1109.00  0.0000E+000
1109.50  0.0000E+000
1110.00  0.0000E+000
1110.50  0.0000E+000
1111.00  0.0000E+000
1111.50  0.0000E+000
1112.00  0.0000E+000
1112.50  0.0000E+000
1113.00  0.0000E+000
1113.50  0.0000E+000
1114.00  0.0000E+000
1114.50  0.0000E+000
1115.00  0.0000E+000
1115.50  0.0000E+000
1116.00  0.0000E+000
1116.50  0.0000E+000
1117.00  0.0000E+000
1117.50  0.0000E+000
1118.00  0.0000E+000
1118.50  0.0000E+000
1119.00  0.0000E+000
1119.50  0.0000E+000
1120.00  0.0000E+000
1120.50  0.0000E+000
1121.00  0.0000E+000
1121.50  0.0000E+000
1122.00  0.0000E+000
1122.50  0.0000E+000
1123.00  0.0000E+000
1123.50  0.0000E+000
1124.00  0.0000E+000
1124.50  0.0000E+000
1125.00  0.0000E+000
1125.50  0.0000E+000
1126.00  0.0000E+000
1126.50  0.0000E+000
1127.00  0.0000E+000
1127.50  0.0000E+000
: 6
