" File: 160128_ReferenceSpectra\13.IRR
" RAD->  Wave:366.44nm  Pix:434  Val:  0.000  Time:350ms  Avg:5  Sm:1  Sg:1  Tc:off  SNAP  Xt:1  Ch:1  Xtrig wnmcal >RAD-IS6.CAL
 180.00  0.0000E+000
 180.50  0.0000E+000
 181.00  0.0000E+000
 181.50  0.0000E+000
 182.00  0.0000E+000
 182.50  0.0000E+000
 183.00  0.0000E+000
 183.50  0.0000E+000
 184.00  0.0000E+000
 184.50  0.0000E+000
 185.00  0.0000E+000
 185.50  0.0000E+000
 186.00  0.0000E+000
 186.50  0.0000E+000
 187.00  0.0000E+000
 187.50  0.0000E+000
 188.00  0.0000E+000
 188.50  0.0000E+000
 189.00  0.0000E+000
 189.50  0.0000E+000
 190.00  0.0000E+000
 190.50  0.0000E+000
 191.00  0.0000E+000
 191.50  0.0000E+000
 192.00  0.0000E+000
 192.50  0.0000E+000
 193.00  0.0000E+000
 193.50  0.0000E+000
 194.00  0.0000E+000
 194.50  0.0000E+000
 195.00  0.0000E+000
 195.50  0.0000E+000
 196.00  0.0000E+000
 196.50  0.0000E+000
 197.00  0.0000E+000
 197.50  0.0000E+000
 198.00  0.0000E+000
 198.50  0.0000E+000
 199.00  0.0000E+000
 199.50  0.0000E+000
 200.00  0.0000E+000
 200.50  0.0000E+000
 201.00  0.0000E+000
 201.50  0.0000E+000
 202.00  0.0000E+000
 202.50  0.0000E+000
 203.00  0.0000E+000
 203.50  0.0000E+000
 204.00  0.0000E+000
 204.50  0.0000E+000
 205.00  0.0000E+000
 205.50  0.0000E+000
 206.00  0.0000E+000
 206.50  0.0000E+000
 207.00  0.0000E+000
 207.50  0.0000E+000
 208.00  0.0000E+000
 208.50  0.0000E+000
 209.00  0.0000E+000
 209.50  0.0000E+000
 210.00  0.0000E+000
 210.50  0.0000E+000
 211.00  0.0000E+000
 211.50  0.0000E+000
 212.00  0.0000E+000
 212.50  0.0000E+000
 213.00  0.0000E+000
 213.50  0.0000E+000
 214.00  0.0000E+000
 214.50  0.0000E+000
 215.00  0.0000E+000
 215.50  0.0000E+000
 216.00  0.0000E+000
 216.50  0.0000E+000
 217.00  0.0000E+000
 217.50  0.0000E+000
 218.00  0.0000E+000
 218.50  0.0000E+000
 219.00  0.0000E+000
 219.50  0.0000E+000
 220.00  0.0000E+000
 220.50  0.0000E+000
 221.00  0.0000E+000
 221.50  0.0000E+000
 222.00  0.0000E+000
 222.50  0.0000E+000
 223.00  0.0000E+000
 223.50  0.0000E+000
 224.00  0.0000E+000
 224.50  0.0000E+000
 225.00  0.0000E+000
 225.50  0.0000E+000
 226.00  0.0000E+000
 226.50  0.0000E+000
 227.00  0.0000E+000
 227.50  0.0000E+000
 228.00  0.0000E+000
 228.50  0.0000E+000
 229.00  0.0000E+000
 229.50  0.0000E+000
 230.00  0.0000E+000
 230.50  0.0000E+000
 231.00  0.0000E+000
 231.50  0.0000E+000
 232.00  0.0000E+000
 232.50  0.0000E+000
 233.00  0.0000E+000
 233.50  0.0000E+000
 234.00  0.0000E+000
 234.50  0.0000E+000
 235.00  0.0000E+000
 235.50  0.0000E+000
 236.00  0.0000E+000
 236.50  0.0000E+000
 237.00  0.0000E+000
 237.50  0.0000E+000
 238.00  0.0000E+000
 238.50  0.0000E+000
 239.00  0.0000E+000
 239.50  0.0000E+000
 240.00  0.0000E+000
 240.50  0.0000E+000
 241.00  0.0000E+000
 241.50  0.0000E+000
 242.00  0.0000E+000
 242.50  0.0000E+000
 243.00  0.0000E+000
 243.50  0.0000E+000
 244.00  0.0000E+000
 244.50  0.0000E+000
 245.00  0.0000E+000
 245.50  0.0000E+000
 246.00  0.0000E+000
 246.50  0.0000E+000
 247.00  0.0000E+000
 247.50  0.0000E+000
 248.00  0.0000E+000
 248.50  0.0000E+000
 249.00  0.0000E+000
 249.50  0.0000E+000
 250.00  0.0000E+000
 250.50  0.0000E+000
 251.00  0.0000E+000
 251.50  0.0000E+000
 252.00  0.0000E+000
 252.50  0.0000E+000
 253.00  0.0000E+000
 253.50  0.0000E+000
 254.00  0.0000E+000
 254.50  0.0000E+000
 255.00  0.0000E+000
 255.50  0.0000E+000
 256.00  0.0000E+000
 256.50  0.0000E+000
 257.00  0.0000E+000
 257.50  0.0000E+000
 258.00  0.0000E+000
 258.50  0.0000E+000
 259.00  0.0000E+000
 259.50  0.0000E+000
 260.00  0.0000E+000
 260.50  0.0000E+000
 261.00  0.0000E+000
 261.50  0.0000E+000
 262.00  0.0000E+000
 262.50  0.0000E+000
 263.00  0.0000E+000
 263.50  0.0000E+000
 264.00  0.0000E+000
 264.50  0.0000E+000
 265.00  0.0000E+000
 265.50  0.0000E+000
 266.00  0.0000E+000
 266.50  0.0000E+000
 267.00  0.0000E+000
 267.50  0.0000E+000
 268.00  0.0000E+000
 268.50  0.0000E+000
 269.00  0.0000E+000
 269.50  0.0000E+000
 270.00  0.0000E+000
 270.50  0.0000E+000
 271.00  0.0000E+000
 271.50  0.0000E+000
 272.00  0.0000E+000
 272.50  0.0000E+000
 273.00  0.0000E+000
 273.50  0.0000E+000
 274.00  0.0000E+000
 274.50  0.0000E+000
 275.00  0.0000E+000
 275.50  0.0000E+000
 276.00  0.0000E+000
 276.50  0.0000E+000
 277.00  0.0000E+000
 277.50  0.0000E+000
 278.00  0.0000E+000
 278.50  0.0000E+000
 279.00  0.0000E+000
 279.50  0.0000E+000
 280.00  0.0000E+000
 280.50  0.0000E+000
 281.00  0.0000E+000
 281.50  0.0000E+000
 282.00  0.0000E+000
 282.50  0.0000E+000
 283.00  0.0000E+000
 283.50  0.0000E+000
 284.00  0.0000E+000
 284.50  0.0000E+000
 285.00  0.0000E+000
 285.50  0.0000E+000
 286.00  0.0000E+000
 286.50  0.0000E+000
 287.00  0.0000E+000
 287.50  0.0000E+000
 288.00  0.0000E+000
 288.50  0.0000E+000
 289.00  0.0000E+000
 289.50  0.0000E+000
 290.00  0.0000E+000
 290.50  0.0000E+000
 291.00  0.0000E+000
 291.50  0.0000E+000
 292.00  0.0000E+000
 292.50  0.0000E+000
 293.00  0.0000E+000
 293.50  0.0000E+000
 294.00  0.0000E+000
 294.50  0.0000E+000
 295.00  0.0000E+000
 295.50  0.0000E+000
 296.00  0.0000E+000
 296.50  0.0000E+000
 297.00  0.0000E+000
 297.50  0.0000E+000
 298.00  0.0000E+000
 298.50  0.0000E+000
 299.00  0.0000E+000
 299.50  0.0000E+000
 300.00  0.0000E+000
 300.50  0.0000E+000
 301.00  0.0000E+000
 301.50  0.0000E+000
 302.00  0.0000E+000
 302.50  0.0000E+000
 303.00  0.0000E+000
 303.50  0.0000E+000
 304.00  0.0000E+000
 304.50  0.0000E+000
 305.00  0.0000E+000
 305.50  0.0000E+000
 306.00  0.0000E+000
 306.50  0.0000E+000
 307.00  0.0000E+000
 307.50  0.0000E+000
 308.00  0.0000E+000
 308.50  0.0000E+000
 309.00  0.0000E+000
 309.50  0.0000E+000
 310.00  0.0000E+000
 310.50  0.0000E+000
 311.00  0.0000E+000
 311.50  0.0000E+000
 312.00  0.0000E+000
 312.50  0.0000E+000
 313.00  0.0000E+000
 313.50  0.0000E+000
 314.00  0.0000E+000
 314.50  0.0000E+000
 315.00  0.0000E+000
 315.50  0.0000E+000
 316.00  0.0000E+000
 316.50  0.0000E+000
 317.00  0.0000E+000
 317.50  0.0000E+000
 318.00  0.0000E+000
 318.50  0.0000E+000
 319.00  0.0000E+000
 319.50  0.0000E+000
 320.00  0.0000E+000
 320.50  0.0000E+000
 321.00  0.0000E+000
 321.50  0.0000E+000
 322.00  0.0000E+000
 322.50  0.0000E+000
 323.00  0.0000E+000
 323.50  0.0000E+000
 324.00  0.0000E+000
 324.50  0.0000E+000
 325.00  0.0000E+000
 325.50  0.0000E+000
 326.00  0.0000E+000
 326.50  0.0000E+000
 327.00  0.0000E+000
 327.50  0.0000E+000
 328.00  0.0000E+000
 328.50  0.0000E+000
 329.00  0.0000E+000
 329.50  0.0000E+000
 330.00  0.0000E+000
 330.50  0.0000E+000
 331.00  0.0000E+000
 331.50  0.0000E+000
 332.00  0.0000E+000
 332.50  0.0000E+000
 333.00  0.0000E+000
 333.50  0.0000E+000
 334.00  0.0000E+000
 334.50  0.0000E+000
 335.00  0.0000E+000
 335.50  0.0000E+000
 336.00  0.0000E+000
 336.50  0.0000E+000
 337.00  0.0000E+000
 337.50  0.0000E+000
 338.00  0.0000E+000
 338.50  0.0000E+000
 339.00  0.0000E+000
 339.50  0.0000E+000
 340.00  0.0000E+000
 340.50  0.0000E+000
 341.00  0.0000E+000
 341.50  0.0000E+000
 342.00  0.0000E+000
 342.50  0.0000E+000
 343.00  0.0000E+000
 343.50  0.0000E+000
 344.00  0.0000E+000
 344.50  0.0000E+000
 345.00  0.0000E+000
 345.50  0.0000E+000
 346.00  0.0000E+000
 346.50  0.0000E+000
 347.00  0.0000E+000
 347.50  0.0000E+000
 348.00  0.0000E+000
 348.50  0.0000E+000
 349.00  0.0000E+000
 349.50  0.0000E+000
 350.00  0.0000E+000
 350.50  0.0000E+000
 351.00  0.0000E+000
 351.50  0.0000E+000
 352.00  0.0000E+000
 352.50  0.0000E+000
 353.00  0.0000E+000
 353.50  0.0000E+000
 354.00  0.0000E+000
 354.50  0.0000E+000
 355.00  0.0000E+000
 355.50  0.0000E+000
 356.00  0.0000E+000
 356.50  0.0000E+000
 357.00  0.0000E+000
 357.50  0.0000E+000
 358.00  0.0000E+000
 358.50  0.0000E+000
 359.00  0.0000E+000
 359.50  4.3086E-009
 360.00  6.6942E-008
 360.50  1.2803E-007
 361.00  1.4159E-007
 361.50  1.5118E-007
 362.00  1.2519E-007
 362.50  1.0881E-007
 363.00  7.3157E-008
 363.50  5.6063E-008
 364.00  2.5066E-008
 364.50  9.7564E-009
 365.00  7.8708E-009
 365.50  8.5628E-010
 366.00  2.0391E-008
 366.50  7.3717E-008
 367.00  1.3336E-007
 367.50  1.8135E-007
 368.00  2.1198E-007
 368.50  2.2282E-007
 369.00  2.0874E-007
 369.50  2.1669E-007
 370.00  2.3744E-007
 370.50  2.6866E-007
 371.00  2.8619E-007
 371.50  2.8522E-007
 372.00  2.5505E-007
 372.50  2.1551E-007
 373.00  1.8716E-007
 373.50  2.1978E-007
 374.00  2.7414E-007
 374.50  2.4699E-007
 375.00  2.1893E-007
 375.50  1.9992E-007
 376.00  1.4466E-007
 376.50  1.2383E-007
 377.00  1.4894E-007
 377.50  1.5565E-007
 378.00  1.3374E-007
 378.50  1.3581E-007
 379.00  1.3263E-007
 379.50  1.2684E-007
 380.00  1.2334E-007
 380.50  1.2408E-007
 381.00  1.3515E-007
 381.50  1.5355E-007
 382.00  1.7123E-007
 382.50  1.8639E-007
 383.00  1.7872E-007
 383.50  1.5419E-007
 384.00  1.5876E-007
 384.50  1.6807E-007
 385.00  1.7758E-007
 385.50  2.1087E-007
 386.00  2.3469E-007
 386.50  2.2388E-007
 387.00  2.2039E-007
 387.50  2.0953E-007
 388.00  1.9818E-007
 388.50  1.8187E-007
 389.00  1.6782E-007
 389.50  1.5954E-007
 390.00  1.3989E-007
 390.50  1.3009E-007
 391.00  1.4936E-007
 391.50  1.5889E-007
 392.00  2.0983E-007
 392.50  2.5015E-007
 393.00  2.7614E-007
 393.50  2.6542E-007
 394.00  2.5232E-007
 394.50  2.2488E-007
 395.00  1.6208E-007
 395.50  1.3655E-007
 396.00  1.3778E-007
 396.50  1.1087E-007
 397.00  7.6077E-008
 397.50  5.0329E-008
 398.00  3.9982E-008
 398.50  3.0981E-008
 399.00  5.1631E-008
 399.50  9.5579E-008
 400.00  8.6361E-008
 400.50  7.6674E-008
 401.00  6.3063E-008
 401.50  4.3770E-008
 402.00  4.7015E-008
 402.50  5.5211E-008
 403.00  5.2808E-008
 403.50  7.7846E-008
 404.00  9.9457E-008
 404.50  1.0044E-007
 405.00  1.0395E-007
 405.50  9.6228E-008
 406.00  9.1301E-008
 406.50  1.0565E-007
 407.00  1.3157E-007
 407.50  1.5404E-007
 408.00  1.5652E-007
 408.50  1.6366E-007
 409.00  1.6841E-007
 409.50  1.8075E-007
 410.00  2.1101E-007
 410.50  2.4959E-007
 411.00  2.7752E-007
 411.50  2.7987E-007
 412.00  2.5636E-007
 412.50  2.2672E-007
 413.00  1.7402E-007
 413.50  1.1675E-007
 414.00  7.4321E-008
 414.50  2.5898E-008
 415.00  2.9392E-009
 415.50  0.0000E+000
 416.00  0.0000E+000
 416.50  1.0193E-008
 417.00  1.0497E-008
 417.50  1.6505E-008
 418.00  1.5289E-008
 418.50  3.1682E-008
 419.00  6.2043E-008
 419.50  7.2257E-008
 420.00  9.1562E-008
 420.50  1.3080E-007
 421.00  1.2879E-007
 421.50  1.1190E-007
 422.00  1.3410E-007
 422.50  1.4532E-007
 423.00  1.5695E-007
 423.50  1.9330E-007
 424.00  2.4612E-007
 424.50  2.6873E-007
 425.00  2.6260E-007
 425.50  2.5233E-007
 426.00  2.1792E-007
 426.50  1.7779E-007
 427.00  1.9163E-007
 427.50  2.2549E-007
 428.00  2.0772E-007
 428.50  2.0576E-007
 429.00  2.2092E-007
 429.50  2.3190E-007
 430.00  2.5522E-007
 430.50  2.9766E-007
 431.00  3.1097E-007
 431.50  2.9693E-007
 432.00  3.0879E-007
 432.50  3.3456E-007
 433.00  3.6252E-007
 433.50  3.7342E-007
 434.00  3.5463E-007
 434.50  3.3773E-007
 435.00  3.0677E-007
 435.50  2.7345E-007
 436.00  2.2120E-007
 436.50  1.8462E-007
 437.00  1.6967E-007
 437.50  1.7348E-007
 438.00  1.9867E-007
 438.50  2.2404E-007
 439.00  2.3581E-007
 439.50  2.5233E-007
 440.00  2.8838E-007
 440.50  2.9684E-007
 441.00  3.3144E-007
 441.50  3.4457E-007
 442.00  3.3054E-007
 442.50  2.8813E-007
 443.00  2.5610E-007
 443.50  2.0856E-007
 444.00  1.5947E-007
 444.50  1.4294E-007
 445.00  1.3595E-007
 445.50  1.3221E-007
 446.00  1.4046E-007
 446.50  1.5294E-007
 447.00  1.5880E-007
 447.50  1.7085E-007
 448.00  1.8612E-007
 448.50  1.7448E-007
 449.00  1.4524E-007
 449.50  1.3088E-007
 450.00  9.3315E-008
 450.50  9.5068E-008
 451.00  1.2948E-007
 451.50  1.5801E-007
 452.00  1.8992E-007
 452.50  2.3144E-007
 453.00  2.6757E-007
 453.50  3.0926E-007
 454.00  3.6094E-007
 454.50  3.5576E-007
 455.00  3.2140E-007
 455.50  2.8790E-007
 456.00  2.4743E-007
 456.50  2.0712E-007
 457.00  1.9912E-007
 457.50  1.8588E-007
 458.00  1.6406E-007
 458.50  1.4687E-007
 459.00  1.3813E-007
 459.50  1.4262E-007
 460.00  1.5352E-007
 460.50  1.6161E-007
 461.00  1.7133E-007
 461.50  1.7741E-007
 462.00  1.7158E-007
 462.50  1.6269E-007
 463.00  1.4910E-007
 463.50  1.3586E-007
 464.00  1.2687E-007
 464.50  1.2173E-007
 465.00  1.2155E-007
 465.50  1.2206E-007
 466.00  1.1803E-007
 466.50  1.2183E-007
 467.00  1.2779E-007
 467.50  1.2453E-007
 468.00  1.0952E-007
 468.50  8.6342E-008
 469.00  4.5982E-008
 469.50  3.6050E-008
 470.00  5.2287E-008
 470.50  9.7337E-008
 471.00  1.3457E-007
 471.50  1.5012E-007
 472.00  1.5176E-007
 472.50  1.3103E-007
 473.00  1.0232E-007
 473.50  9.2679E-008
 474.00  8.7194E-008
 474.50  1.0002E-007
 475.00  1.0891E-007
 475.50  1.4001E-007
 476.00  1.6887E-007
 476.50  1.8613E-007
 477.00  1.9192E-007
 477.50  1.8666E-007
 478.00  2.0044E-007
 478.50  2.3334E-007
 479.00  2.4649E-007
 479.50  2.8703E-007
 480.00  3.0672E-007
 480.50  3.0331E-007
 481.00  3.1145E-007
 481.50  3.2973E-007
 482.00  3.3605E-007
 482.50  3.4290E-007
 483.00  3.5409E-007
 483.50  3.4947E-007
 484.00  3.5558E-007
 484.50  3.5301E-007
 485.00  3.6474E-007
 485.50  3.5930E-007
 486.00  3.3954E-007
 486.50  3.2226E-007
 487.00  2.9692E-007
 487.50  2.6112E-007
 488.00  2.3917E-007
 488.50  2.1112E-007
 489.00  1.8585E-007
 489.50  1.6913E-007
 490.00  1.6302E-007
 490.50  1.6234E-007
 491.00  1.7785E-007
 491.50  2.0830E-007
 492.00  2.1872E-007
 492.50  2.0876E-007
 493.00  2.0559E-007
 493.50  1.7267E-007
 494.00  1.4216E-007
 494.50  1.2335E-007
 495.00  9.8943E-008
 495.50  9.0080E-008
 496.00  1.0124E-007
 496.50  1.1126E-007
 497.00  1.3996E-007
 497.50  1.6931E-007
 498.00  1.7583E-007
 498.50  1.7354E-007
 499.00  1.8277E-007
 499.50  1.7785E-007
 500.00  1.7905E-007
 500.50  1.7703E-007
 501.00  1.9161E-007
 501.50  2.3120E-007
 502.00  2.8548E-007
 502.50  3.3221E-007
 503.00  3.7236E-007
 503.50  4.0453E-007
 504.00  3.9880E-007
 504.50  3.8575E-007
 505.00  3.9939E-007
 505.50  3.9538E-007
 506.00  3.6900E-007
 506.50  3.4651E-007
 507.00  3.2385E-007
 507.50  3.0369E-007
 508.00  3.1525E-007
 508.50  3.5140E-007
 509.00  3.9018E-007
 509.50  4.3318E-007
 510.00  4.5259E-007
 510.50  4.1966E-007
 511.00  3.9428E-007
 511.50  3.7326E-007
 512.00  3.6159E-007
 512.50  3.7457E-007
 513.00  3.9722E-007
 513.50  4.0547E-007
 514.00  3.9592E-007
 514.50  3.7169E-007
 515.00  3.6218E-007
 515.50  3.4540E-007
 516.00  3.4647E-007
 516.50  3.5671E-007
 517.00  3.7028E-007
 517.50  3.8507E-007
 518.00  3.9035E-007
 518.50  4.0260E-007
 519.00  4.0959E-007
 519.50  4.1943E-007
 520.00  4.6943E-007
 520.50  5.2043E-007
 521.00  5.5700E-007
 521.50  6.0872E-007
 522.00  6.4834E-007
 522.50  6.6539E-007
 523.00  6.8114E-007
 523.50  6.7576E-007
 524.00  6.3798E-007
 524.50  6.0205E-007
 525.00  5.6829E-007
 525.50  5.3596E-007
 526.00  5.5234E-007
 526.50  5.8457E-007
 527.00  6.0912E-007
 527.50  6.4772E-007
 528.00  6.9191E-007
 528.50  7.2920E-007
 529.00  7.9557E-007
 529.50  8.7461E-007
 530.00  9.3386E-007
 530.50  9.7915E-007
 531.00  1.0181E-006
 531.50  1.0465E-006
 532.00  1.0522E-006
 532.50  1.0242E-006
 533.00  9.9975E-007
 533.50  9.8092E-007
 534.00  9.8057E-007
 534.50  9.9666E-007
 535.00  1.0265E-006
 535.50  1.1032E-006
 536.00  1.1486E-006
 536.50  1.1763E-006
 537.00  1.2392E-006
 537.50  1.2775E-006
 538.00  1.2959E-006
 538.50  1.3242E-006
 539.00  1.3851E-006
 539.50  1.4576E-006
 540.00  1.4764E-006
 540.50  1.4959E-006
 541.00  1.5297E-006
 541.50  1.5551E-006
 542.00  1.5330E-006
 542.50  1.5977E-006
 543.00  1.6702E-006
 543.50  1.7187E-006
 544.00  1.7991E-006
 544.50  1.8831E-006
 545.00  1.9180E-006
 545.50  1.9485E-006
 546.00  1.9861E-006
 546.50  2.0090E-006
 547.00  2.0644E-006
 547.50  2.1451E-006
 548.00  2.2144E-006
 548.50  2.2803E-006
 549.00  2.3581E-006
 549.50  2.4201E-006
 550.00  2.4954E-006
 550.50  2.6354E-006
 551.00  2.6900E-006
 551.50  2.7274E-006
 552.00  2.8245E-006
 552.50  2.9463E-006
 553.00  3.0872E-006
 553.50  3.2871E-006
 554.00  3.4531E-006
 554.50  3.5884E-006
 555.00  3.6480E-006
 555.50  3.7162E-006
 556.00  3.8266E-006
 556.50  3.9064E-006
 557.00  4.0123E-006
 557.50  4.1857E-006
 558.00  4.3883E-006
 558.50  4.6447E-006
 559.00  4.9113E-006
 559.50  5.1680E-006
 560.00  5.4486E-006
 560.50  5.7458E-006
 561.00  6.0531E-006
 561.50  6.4220E-006
 562.00  6.8375E-006
 562.50  7.2057E-006
 563.00  7.5854E-006
 563.50  7.9780E-006
 564.00  8.3253E-006
 564.50  8.6866E-006
 565.00  9.1291E-006
 565.50  9.5996E-006
 566.00  1.0093E-005
 566.50  1.0618E-005
 567.00  1.1148E-005
 567.50  1.1712E-005
 568.00  1.2351E-005
 568.50  1.2980E-005
 569.00  1.3626E-005
 569.50  1.4369E-005
 570.00  1.5120E-005
 570.50  1.5878E-005
 571.00  1.6814E-005
 571.50  1.7808E-005
 572.00  1.8801E-005
 572.50  1.9920E-005
 573.00  2.1096E-005
 573.50  2.2254E-005
 574.00  2.3493E-005
 574.50  2.4764E-005
 575.00  2.6090E-005
 575.50  2.7505E-005
 576.00  2.9032E-005
 576.50  3.0694E-005
 577.00  3.2530E-005
 577.50  3.4489E-005
 578.00  3.6560E-005
 578.50  3.8711E-005
 579.00  4.0896E-005
 579.50  4.3142E-005
 580.00  4.5509E-005
 580.50  4.8043E-005
 581.00  5.0936E-005
 581.50  5.4035E-005
 582.00  5.7336E-005
 582.50  6.0785E-005
 583.00  6.4389E-005
 583.50  6.8160E-005
 584.00  7.2136E-005
 584.50  7.6287E-005
 585.00  8.0655E-005
 585.50  8.5183E-005
 586.00  8.9858E-005
 586.50  9.4804E-005
 587.00  1.0009E-004
 587.50  1.0571E-004
 588.00  1.1171E-004
 588.50  1.1804E-004
 589.00  1.2465E-004
 589.50  1.3154E-004
 590.00  1.3873E-004
 590.50  1.4628E-004
 591.00  1.5427E-004
 591.50  1.6279E-004
 592.00  1.7183E-004
 592.50  1.8149E-004
 593.00  1.9168E-004
 593.50  2.0260E-004
 594.00  2.1408E-004
 594.50  2.2619E-004
 595.00  2.3910E-004
 595.50  2.5311E-004
 596.00  2.6833E-004
 596.50  2.8489E-004
 597.00  3.0266E-004
 597.50  3.2134E-004
 598.00  3.4074E-004
 598.50  3.6077E-004
 599.00  3.8149E-004
 599.50  4.0294E-004
 600.00  4.2519E-004
 600.50  4.4809E-004
 601.00  4.7196E-004
 601.50  4.9700E-004
 602.00  5.2328E-004
 602.50  5.5090E-004
 603.00  5.7993E-004
 603.50  6.1064E-004
 604.00  6.4319E-004
 604.50  6.7740E-004
 605.00  7.1313E-004
 605.50  7.4981E-004
 606.00  7.8761E-004
 606.50  8.2668E-004
 607.00  8.6677E-004
 607.50  9.0694E-004
 608.00  9.4592E-004
 608.50  9.8271E-004
 609.00  1.0169E-003
 609.50  1.0492E-003
 610.00  1.0804E-003
 610.50  1.1111E-003
 611.00  1.1408E-003
 611.50  1.1673E-003
 612.00  1.1895E-003
 612.50  1.2062E-003
 613.00  1.2165E-003
 613.50  1.2210E-003
 614.00  1.2197E-003
 614.50  1.2129E-003
 615.00  1.2006E-003
 615.50  1.1824E-003
 616.00  1.1575E-003
 616.50  1.1257E-003
 617.00  1.0875E-003
 617.50  1.0441E-003
 618.00  9.9744E-004
 618.50  9.4994E-004
 619.00  9.0256E-004
 619.50  8.5591E-004
 620.00  8.1005E-004
 620.50  7.6498E-004
 621.00  7.2121E-004
 621.50  6.7924E-004
 622.00  6.3949E-004
 622.50  6.0198E-004
 623.00  5.6659E-004
 623.50  5.3321E-004
 624.00  5.0150E-004
 624.50  4.7124E-004
 625.00  4.4239E-004
 625.50  4.1479E-004
 626.00  3.8846E-004
 626.50  3.6339E-004
 627.00  3.3955E-004
 627.50  3.1685E-004
 628.00  2.9525E-004
 628.50  2.7476E-004
 629.00  2.5542E-004
 629.50  2.3711E-004
 630.00  2.1985E-004
 630.50  2.0365E-004
 631.00  1.8854E-004
 631.50  1.7442E-004
 632.00  1.6135E-004
 632.50  1.4934E-004
 633.00  1.3835E-004
 633.50  1.2823E-004
 634.00  1.1888E-004
 634.50  1.1030E-004
 635.00  1.0244E-004
 635.50  9.5140E-005
 636.00  8.8503E-005
 636.50  8.2474E-005
 637.00  7.6969E-005
 637.50  7.1886E-005
 638.00  6.7323E-005
 638.50  6.3063E-005
 639.00  5.9107E-005
 639.50  5.5416E-005
 640.00  5.2031E-005
 640.50  4.8916E-005
 641.00  4.6039E-005
 641.50  4.3322E-005
 642.00  4.0788E-005
 642.50  3.8405E-005
 643.00  3.6224E-005
 643.50  3.4105E-005
 644.00  3.2201E-005
 644.50  3.0514E-005
 645.00  2.9025E-005
 645.50  2.7808E-005
 646.00  2.6703E-005
 646.50  2.5742E-005
 647.00  2.4892E-005
 647.50  2.4013E-005
 648.00  2.3154E-005
 648.50  2.2449E-005
 649.00  2.1789E-005
 649.50  2.1070E-005
 650.00  2.0448E-005
 650.50  2.0026E-005
 651.00  1.9464E-005
 651.50  1.8801E-005
 652.00  1.8213E-005
 652.50  1.7610E-005
 653.00  1.7039E-005
 653.50  1.6559E-005
 654.00  1.6107E-005
 654.50  1.5608E-005
 655.00  1.5134E-005
 655.50  1.4760E-005
 656.00  1.4387E-005
 656.50  1.4050E-005
 657.00  1.3687E-005
 657.50  1.3245E-005
 658.00  1.2754E-005
 658.50  1.2413E-005
 659.00  1.2217E-005
 659.50  1.2136E-005
 660.00  1.2004E-005
 660.50  1.1963E-005
 661.00  1.1977E-005
 661.50  1.1835E-005
 662.00  1.1731E-005
 662.50  1.1551E-005
 663.00  1.1320E-005
 663.50  1.0966E-005
 664.00  1.0717E-005
 664.50  1.0449E-005
 665.00  1.0229E-005
 665.50  9.9992E-006
 666.00  9.7902E-006
 666.50  9.4893E-006
 667.00  9.1657E-006
 667.50  8.8802E-006
 668.00  8.6169E-006
 668.50  8.4650E-006
 669.00  8.4213E-006
 669.50  8.4209E-006
 670.00  8.5354E-006
 670.50  8.5253E-006
 671.00  8.5387E-006
 671.50  8.5892E-006
 672.00  8.5058E-006
 672.50  8.3635E-006
 673.00  8.3174E-006
 673.50  8.3223E-006
 674.00  8.3488E-006
 674.50  8.4071E-006
 675.00  8.3162E-006
 675.50  8.0730E-006
 676.00  7.8193E-006
 676.50  7.5331E-006
 677.00  7.2515E-006
 677.50  7.1526E-006
 678.00  7.1830E-006
 678.50  7.2502E-006
 679.00  7.3263E-006
 679.50  7.3844E-006
 680.00  7.4424E-006
 680.50  7.4529E-006
 681.00  7.3951E-006
 681.50  7.3248E-006
 682.00  7.2150E-006
 682.50  7.0392E-006
 683.00  6.9068E-006
 683.50  6.7269E-006
 684.00  6.4974E-006
 684.50  6.3043E-006
 685.00  6.0402E-006
 685.50  5.7972E-006
 686.00  5.6775E-006
 686.50  5.7692E-006
 687.00  5.8338E-006
 687.50  5.9396E-006
 688.00  6.1429E-006
 688.50  6.2405E-006
 689.00  6.2784E-006
 689.50  6.4524E-006
 690.00  6.5581E-006
 690.50  6.4701E-006
 691.00  6.3882E-006
 691.50  6.2094E-006
 692.00  6.0346E-006
 692.50  5.7946E-006
 693.00  5.6320E-006
 693.50  5.4894E-006
 694.00  5.5415E-006
 694.50  5.5179E-006
 695.00  5.5271E-006
 695.50  5.7385E-006
 696.00  6.0682E-006
 696.50  6.2697E-006
 697.00  6.3708E-006
 697.50  6.4045E-006
 698.00  6.2116E-006
 698.50  5.7080E-006
 699.00  5.2593E-006
 699.50  4.8532E-006
 700.00  4.4626E-006
 700.50  4.0950E-006
 701.00  3.7791E-006
 701.50  3.5395E-006
 702.00  3.4184E-006
 702.50  3.4129E-006
 703.00  3.5471E-006
 703.50  3.6150E-006
 704.00  3.5932E-006
 704.50  3.6619E-006
 705.00  3.7270E-006
 705.50  3.7602E-006
 706.00  3.9619E-006
 706.50  4.0830E-006
 707.00  4.0765E-006
 707.50  4.0986E-006
 708.00  4.1442E-006
 708.50  4.4653E-006
 709.00  4.8021E-006
 709.50  5.0480E-006
 710.00  5.2132E-006
 710.50  5.2745E-006
 711.00  5.0056E-006
 711.50  4.6812E-006
 712.00  4.4847E-006
 712.50  4.2218E-006
 713.00  4.0603E-006
 713.50  4.1462E-006
 714.00  4.2631E-006
 714.50  4.2846E-006
 715.00  4.5559E-006
 715.50  4.4239E-006
 716.00  4.2263E-006
 716.50  3.9538E-006
 717.00  3.6839E-006
 717.50  3.3024E-006
 718.00  3.0838E-006
 718.50  2.9291E-006
 719.00  2.8958E-006
 719.50  2.9215E-006
 720.00  3.0790E-006
 720.50  3.2766E-006
 721.00  3.4481E-006
 721.50  3.5361E-006
 722.00  3.4797E-006
 722.50  3.2442E-006
 723.00  2.9565E-006
 723.50  2.4940E-006
 724.00  2.1739E-006
 724.50  2.1633E-006
 725.00  2.3769E-006
 725.50  2.5459E-006
 726.00  2.7071E-006
 726.50  2.9038E-006
 727.00  2.8750E-006
 727.50  2.7094E-006
 728.00  2.5920E-006
 728.50  2.4626E-006
 729.00  2.3278E-006
 729.50  2.2854E-006
 730.00  2.4650E-006
 730.50  2.8043E-006
 731.00  3.0687E-006
 731.50  3.3273E-006
 732.00  3.4076E-006
 732.50  3.4103E-006
 733.00  3.3342E-006
 733.50  3.3660E-006
 734.00  3.2987E-006
 734.50  3.1841E-006
 735.00  3.0382E-006
 735.50  2.7992E-006
 736.00  2.5811E-006
 736.50  2.5646E-006
 737.00  2.5318E-006
 737.50  2.5589E-006
 738.00  2.4675E-006
 738.50  2.2369E-006
 739.00  1.9736E-006
 739.50  1.6777E-006
 740.00  1.6287E-006
 740.50  1.6735E-006
 741.00  1.7696E-006
 741.50  1.8853E-006
 742.00  2.0729E-006
 742.50  1.9969E-006
 743.00  1.9057E-006
 743.50  1.8466E-006
 744.00  1.8070E-006
 744.50  1.6863E-006
 745.00  1.5562E-006
 745.50  1.4449E-006
 746.00  1.4613E-006
 746.50  1.3533E-006
 747.00  1.4881E-006
 747.50  1.6383E-006
 748.00  1.8026E-006
 748.50  1.8448E-006
 749.00  2.1368E-006
 749.50  2.2400E-006
 750.00  2.3543E-006
 750.50  2.2108E-006
 751.00  1.9976E-006
 751.50  1.7675E-006
 752.00  1.5761E-006
 752.50  1.5191E-006
 753.00  1.7124E-006
 753.50  1.8048E-006
 754.00  1.8328E-006
 754.50  1.6676E-006
 755.00  1.5987E-006
 755.50  1.5414E-006
 756.00  1.8268E-006
 756.50  1.9956E-006
 757.00  2.3780E-006
 757.50  2.6156E-006
 758.00  2.6621E-006
 758.50  2.5223E-006
 759.00  2.5476E-006
 759.50  2.6037E-006
 760.00  2.6424E-006
 760.50  2.7190E-006
 761.00  2.7791E-006
 761.50  2.7198E-006
 762.00  2.5585E-006
 762.50  2.3351E-006
 763.00  2.1170E-006
 763.50  2.1497E-006
 764.00  2.3233E-006
 764.50  2.2989E-006
 765.00  2.2705E-006
 765.50  2.4466E-006
 766.00  2.4644E-006
 766.50  2.5719E-006
 767.00  2.8040E-006
 767.50  3.0361E-006
 768.00  3.1502E-006
 768.50  3.1269E-006
 769.00  3.0840E-006
 769.50  3.1935E-006
 770.00  2.9066E-006
 770.50  2.4712E-006
 771.00  2.3383E-006
 771.50  2.2876E-006
 772.00  2.0281E-006
 772.50  2.1868E-006
 773.00  2.3416E-006
 773.50  2.1461E-006
 774.00  1.7543E-006
 774.50  1.4884E-006
 775.00  1.4815E-006
 775.50  1.3876E-006
 776.00  1.4443E-006
 776.50  1.7108E-006
 777.00  1.9891E-006
 777.50  2.1664E-006
 778.00  2.3747E-006
 778.50  2.5324E-006
 779.00  2.6772E-006
 779.50  2.8340E-006
 780.00  3.0203E-006
 780.50  2.9990E-006
 781.00  3.3615E-006
 781.50  3.2870E-006
 782.00  2.9496E-006
 782.50  2.2852E-006
 783.00  2.1006E-006
 783.50  1.1728E-006
 784.00  9.2950E-007
 784.50  1.1303E-006
 785.00  1.6213E-006
 785.50  1.7369E-006
 786.00  2.1058E-006
 786.50  2.2527E-006
 787.00  2.0577E-006
 787.50  1.8914E-006
 788.00  2.0096E-006
 788.50  2.1194E-006
 789.00  2.3565E-006
 789.50  2.5704E-006
 790.00  2.4003E-006
 790.50  1.9751E-006
 791.00  1.4541E-006
 791.50  9.3652E-007
 792.00  6.9650E-007
 792.50  7.4618E-007
 793.00  7.6421E-007
 793.50  8.8956E-007
 794.00  9.0866E-007
 794.50  7.5085E-007
 795.00  6.6785E-007
 795.50  6.4755E-007
 796.00  5.7074E-007
 796.50  4.5230E-007
 797.00  4.0063E-007
 797.50  4.2335E-007
 798.00  4.5696E-007
 798.50  5.2971E-007
 799.00  8.6084E-007
 799.50  1.0170E-006
 800.00  9.6730E-007
 800.50  8.1838E-007
 801.00  5.4390E-007
 801.50  1.7255E-007
 802.00  1.9424E-007
 802.50  2.2136E-007
 803.00  5.5712E-007
 803.50  7.7810E-007
 804.00  8.3886E-007
 804.50  5.2582E-007
 805.00  2.5697E-007
 805.50  0.0000E+000
 806.00  1.7363E-008
 806.50  1.4034E-007
 807.00  4.7717E-007
 807.50  8.8854E-007
 808.00  1.1552E-006
 808.50  1.0875E-006
 809.00  1.1062E-006
 809.50  7.7052E-007
 810.00  4.3744E-007
 810.50  1.6332E-007
 811.00  7.1105E-009
 811.50  0.0000E+000
 812.00  3.0895E-009
 812.50  9.2553E-008
 813.00  4.0166E-007
 813.50  6.6230E-007
 814.00  6.4911E-007
 814.50  6.9277E-007
 815.00  6.5303E-007
 815.50  5.3257E-007
 816.00  7.7862E-007
 816.50  1.2622E-006
 817.00  1.5161E-006
 817.50  1.6759E-006
 818.00  1.8011E-006
 818.50  1.8614E-006
 819.00  1.5920E-006
 819.50  1.6942E-006
 820.00  1.7897E-006
 820.50  1.8977E-006
 821.00  2.0630E-006
 821.50  2.1736E-006
 822.00  1.9414E-006
 822.50  1.8597E-006
 823.00  1.4636E-006
 823.50  1.0230E-006
 824.00  9.4303E-007
 824.50  9.0312E-007
 825.00  6.6351E-007
 825.50  6.7788E-007
 826.00  9.0126E-007
 826.50  1.0856E-006
 827.00  1.3101E-006
 827.50  1.5877E-006
 828.00  1.7684E-006
 828.50  2.0887E-006
 829.00  2.4959E-006
 829.50  2.9080E-006
 830.00  3.3644E-006
 830.50  3.5841E-006
 831.00  3.3481E-006
 831.50  2.8873E-006
 832.00  2.5580E-006
 832.50  2.4575E-006
 833.00  2.4929E-006
 833.50  2.6266E-006
 834.00  3.0800E-006
 834.50  3.4463E-006
 835.00  3.6695E-006
 835.50  3.8946E-006
 836.00  3.6593E-006
 836.50  3.2966E-006
 837.00  3.2349E-006
 837.50  3.3483E-006
 838.00  3.6217E-006
 838.50  4.2919E-006
 839.00  4.7734E-006
 839.50  4.8677E-006
 840.00  4.6730E-006
 840.50  4.5310E-006
 841.00  4.1604E-006
 841.50  3.7201E-006
 842.00  3.4900E-006
 842.50  3.3470E-006
 843.00  3.3398E-006
 843.50  3.5145E-006
 844.00  3.9590E-006
 844.50  4.4088E-006
 845.00  5.2754E-006
 845.50  6.0012E-006
 846.00  6.8635E-006
 846.50  7.3383E-006
 847.00  7.5372E-006
 847.50  7.2567E-006
 848.00  6.5757E-006
 848.50  6.1034E-006
 849.00  6.0768E-006
 849.50  6.1325E-006
 850.00  6.6802E-006
 850.50  7.2728E-006
 851.00  7.8205E-006
 851.50  8.2355E-006
 852.00  8.7127E-006
 852.50  8.9491E-006
 853.00  9.2915E-006
 853.50  9.2478E-006
 854.00  9.2640E-006
 854.50  9.1688E-006
 855.00  8.9131E-006
 855.50  8.4224E-006
 856.00  8.7023E-006
 856.50  9.1519E-006
 857.00  9.1892E-006
 857.50  9.5957E-006
 858.00  1.0255E-005
 858.50  1.0598E-005
 859.00  1.0843E-005
 859.50  1.1543E-005
 860.00  1.2303E-005
 860.50  1.2875E-005
 861.00  1.3202E-005
 861.50  1.3425E-005
 862.00  1.4035E-005
 862.50  1.4833E-005
 863.00  1.6204E-005
 863.50  1.6957E-005
 864.00  1.7903E-005
 864.50  1.9069E-005
 865.00  1.9936E-005
 865.50  1.9678E-005
 866.00  2.0709E-005
 866.50  2.0936E-005
 867.00  2.0458E-005
 867.50  2.0133E-005
 868.00  2.0312E-005
 868.50  2.0721E-005
 869.00  2.1692E-005
 869.50  2.2892E-005
 870.00  2.3922E-005
 870.50  2.4458E-005
 871.00  2.5035E-005
 871.50  2.5691E-005
 872.00  2.6585E-005
 872.50  2.8684E-005
 873.00  3.1605E-005
 873.50  3.4281E-005
 874.00  3.6416E-005
 874.50  3.7634E-005
 875.00  3.7690E-005
 875.50  3.7093E-005
 876.00  3.5813E-005
 876.50  3.4039E-005
 877.00  3.2559E-005
 877.50  3.0838E-005
 878.00  2.9188E-005
 878.50  2.7961E-005
 879.00  2.6913E-005
 879.50  2.6118E-005
 880.00  2.5267E-005
 880.50  2.4824E-005
 881.00  2.4578E-005
 881.50  2.4457E-005
 882.00  2.4416E-005
 882.50  2.5009E-005
 883.00  2.5070E-005
 883.50  2.4201E-005
 884.00  2.3429E-005
 884.50  2.2704E-005
 885.00  2.1880E-005
 885.50  2.1773E-005
 886.00  2.2061E-005
 886.50  2.2081E-005
 887.00  2.1654E-005
 887.50  2.0898E-005
 888.00  2.0193E-005
 888.50  1.9485E-005
 889.00  1.9336E-005
 889.50  1.8936E-005
 890.00  1.7939E-005
 890.50  1.7166E-005
 891.00  1.5835E-005
 891.50  1.4063E-005
 892.00  1.2150E-005
 892.50  1.0895E-005
 893.00  9.8223E-006
 893.50  9.2125E-006
 894.00  8.7163E-006
 894.50  8.4656E-006
 895.00  8.2331E-006
 895.50  8.0467E-006
 896.00  7.8780E-006
 896.50  7.7904E-006
 897.00  7.7885E-006
 897.50  7.5574E-006
 898.00  7.6589E-006
 898.50  8.3244E-006
 899.00  8.9725E-006
 899.50  9.9889E-006
 900.00  1.1317E-005
 900.50  1.2036E-005
 901.00  1.2000E-005
 901.50  1.1793E-005
 902.00  1.0765E-005
 902.50  9.3784E-006
 903.00  7.9096E-006
 903.50  7.1923E-006
 904.00  6.9552E-006
 904.50  7.1593E-006
 905.00  7.0969E-006
 905.50  7.6115E-006
 906.00  8.1247E-006
 906.50  8.4927E-006
 907.00  8.4901E-006
 907.50  8.5182E-006
 908.00  8.1220E-006
 908.50  7.4168E-006
 909.00  6.2722E-006
 909.50  5.2916E-006
 910.00  4.4317E-006
 910.50  3.2938E-006
 911.00  2.4747E-006
 911.50  2.2013E-006
 912.00  2.4185E-006
 912.50  2.7595E-006
 913.00  3.2157E-006
 913.50  3.7268E-006
 914.00  4.0696E-006
 914.50  3.9729E-006
 915.00  3.9569E-006
 915.50  3.9986E-006
 916.00  4.2254E-006
 916.50  4.6568E-006
 917.00  5.0903E-006
 917.50  5.8660E-006
 918.00  6.2420E-006
 918.50  5.9002E-006
 919.00  6.4737E-006
 919.50  6.7748E-006
 920.00  6.8359E-006
 920.50  6.9416E-006
 921.00  6.8425E-006
 921.50  6.0101E-006
 922.00  5.3416E-006
 922.50  4.8642E-006
 923.00  4.7499E-006
 923.50  4.6559E-006
 924.00  3.9783E-006
 924.50  3.5920E-006
 925.00  3.4177E-006
 925.50  3.0626E-006
 926.00  3.4287E-006
 926.50  4.8694E-006
 927.00  6.4142E-006
 927.50  8.5170E-006
 928.00  9.7090E-006
 928.50  1.0025E-005
 929.00  9.6730E-006
 929.50  8.5120E-006
 930.00  6.4566E-006
 930.50  5.2267E-006
 931.00  4.8195E-006
 931.50  4.7060E-006
 932.00  4.8833E-006
 932.50  5.2034E-006
 933.00  5.2883E-006
 933.50  5.0356E-006
 934.00  4.7952E-006
 934.50  4.6610E-006
 935.00  3.8325E-006
 935.50  3.9131E-006
 936.00  4.0363E-006
 936.50  3.3509E-006
 937.00  2.5018E-006
 937.50  2.5619E-006
 938.00  2.4806E-006
 938.50  2.2025E-006
 939.00  2.3719E-006
 939.50  3.2494E-006
 940.00  4.2005E-006
 940.50  4.2444E-006
 941.00  3.9178E-006
 941.50  3.2230E-006
 942.00  2.0593E-006
 942.50  6.4513E-007
 943.00  5.8444E-008
 943.50  0.0000E+000
 944.00  1.2521E-006
 944.50  3.1679E-006
 945.00  3.8206E-006
 945.50  4.8700E-006
 946.00  6.6356E-006
 946.50  6.4759E-006
 947.00  6.4621E-006
 947.50  7.6720E-006
 948.00  8.5909E-006
 948.50  8.8389E-006
 949.00  9.3515E-006
 949.50  9.7153E-006
 950.00  1.0241E-005
 950.50  1.0614E-005
 951.00  1.0309E-005
 951.50  1.0115E-005
 952.00  9.9936E-006
 952.50  9.8424E-006
 953.00  9.6432E-006
 953.50  1.0194E-005
 954.00  1.0099E-005
 954.50  9.4429E-006
 955.00  9.2949E-006
 955.50  9.4699E-006
 956.00  9.5433E-006
 956.50  9.2425E-006
 957.00  8.4412E-006
 957.50  7.3567E-006
 958.00  7.1293E-006
 958.50  7.8280E-006
 959.00  8.9023E-006
 959.50  1.0563E-005
 960.00  1.1667E-005
 960.50  1.2074E-005
 961.00  1.0789E-005
 961.50  1.1115E-005
 962.00  1.0184E-005
 962.50  9.4189E-006
 963.00  8.2252E-006
 963.50  9.2065E-006
 964.00  7.3463E-006
 964.50  6.0496E-006
 965.00  6.6245E-006
 965.50  6.9484E-006
 966.00  5.6705E-006
 966.50  3.9600E-006
 967.00  4.4683E-006
 967.50  4.2906E-006
 968.00  4.9948E-006
 968.50  6.5420E-006
 969.00  1.0305E-005
 969.50  1.2223E-005
 970.00  1.4104E-005
 970.50  1.4550E-005
 971.00  1.5143E-005
 971.50  1.6449E-005
 972.00  1.9116E-005
 972.50  2.3521E-005
 973.00  2.7144E-005
 973.50  2.8109E-005
 974.00  2.6945E-005
 974.50  2.3711E-005
 975.00  1.7738E-005
 975.50  1.4679E-005
 976.00  1.3981E-005
 976.50  1.5066E-005
 977.00  1.7150E-005
 977.50  1.8534E-005
 978.00  1.8914E-005
 978.50  1.9008E-005
 979.00  1.9310E-005
 979.50  1.7687E-005
 980.00  1.8849E-005
 980.50  1.9010E-005
 981.00  1.9332E-005
 981.50  1.8716E-005
 982.00  1.8833E-005
 982.50  1.6164E-005
 983.00  1.5845E-005
 983.50  1.4644E-005
 984.00  1.4414E-005
 984.50  1.3818E-005
 985.00  1.4156E-005
 985.50  1.2990E-005
 986.00  1.2324E-005
 986.50  1.0971E-005
 987.00  1.0089E-005
 987.50  1.0947E-005
 988.00  1.6020E-005
 988.50  2.0024E-005
 989.00  2.1739E-005
 989.50  2.4608E-005
 990.00  2.6771E-005
 990.50  2.4177E-005
 991.00  2.3092E-005
 991.50  2.5426E-005
 992.00  2.7417E-005
 992.50  2.8171E-005
 993.00  2.9157E-005
 993.50  3.0436E-005
 994.00  3.6291E-005
 994.50  4.5156E-005
 995.00  4.6690E-005
 995.50  4.6146E-005
 996.00  4.6974E-005
 996.50  4.2743E-005
 997.00  3.3922E-005
 997.50  3.6829E-005
 998.00  3.9813E-005
 998.50  4.1310E-005
 999.00  3.9154E-005
 999.50  3.7379E-005
1000.00  1.9928E-005
1000.50  9.6018E-007
1001.00  0.0000E+000
1001.50  0.0000E+000
1002.00  0.0000E+000
1002.50  0.0000E+000
1003.00  0.0000E+000
1003.50  0.0000E+000
1004.00  0.0000E+000
1004.50  0.0000E+000
1005.00  0.0000E+000
1005.50  0.0000E+000
1006.00  0.0000E+000
1006.50  0.0000E+000
1007.00  0.0000E+000
1007.50  0.0000E+000
1008.00  0.0000E+000
1008.50  0.0000E+000
1009.00  0.0000E+000
1009.50  0.0000E+000
1010.00  0.0000E+000
1010.50  0.0000E+000
1011.00  0.0000E+000
1011.50  0.0000E+000
1012.00  0.0000E+000
1012.50  0.0000E+000
1013.00  0.0000E+000
1013.50  0.0000E+000
1014.00  0.0000E+000
1014.50  0.0000E+000
1015.00  0.0000E+000
1015.50  0.0000E+000
1016.00  0.0000E+000
1016.50  0.0000E+000
1017.00  0.0000E+000
1017.50  0.0000E+000
1018.00  0.0000E+000
1018.50  0.0000E+000
1019.00  0.0000E+000
1019.50  0.0000E+000
1020.00  0.0000E+000
1020.50  0.0000E+000
1021.00  0.0000E+000
1021.50  0.0000E+000
1022.00  0.0000E+000
1022.50  0.0000E+000
1023.00  0.0000E+000
1023.50  0.0000E+000
1024.00  0.0000E+000
1024.50  0.0000E+000
1025.00  0.0000E+000
1025.50  0.0000E+000
1026.00  0.0000E+000
1026.50  0.0000E+000
1027.00  0.0000E+000
1027.50  0.0000E+000
1028.00  0.0000E+000
1028.50  0.0000E+000
1029.00  0.0000E+000
1029.50  0.0000E+000
1030.00  0.0000E+000
1030.50  0.0000E+000
1031.00  0.0000E+000
1031.50  0.0000E+000
1032.00  0.0000E+000
1032.50  0.0000E+000
1033.00  0.0000E+000
1033.50  0.0000E+000
1034.00  0.0000E+000
1034.50  0.0000E+000
1035.00  0.0000E+000
1035.50  0.0000E+000
1036.00  0.0000E+000
1036.50  0.0000E+000
1037.00  0.0000E+000
1037.50  0.0000E+000
1038.00  0.0000E+000
1038.50  0.0000E+000
1039.00  0.0000E+000
1039.50  0.0000E+000
1040.00  0.0000E+000
1040.50  0.0000E+000
1041.00  0.0000E+000
1041.50  0.0000E+000
1042.00  0.0000E+000
1042.50  0.0000E+000
1043.00  0.0000E+000
1043.50  0.0000E+000
1044.00  0.0000E+000
1044.50  0.0000E+000
1045.00  0.0000E+000
1045.50  0.0000E+000
1046.00  0.0000E+000
1046.50  0.0000E+000
1047.00  0.0000E+000
1047.50  0.0000E+000
1048.00  0.0000E+000
1048.50  0.0000E+000
1049.00  0.0000E+000
1049.50  0.0000E+000
1050.00  0.0000E+000
1050.50  0.0000E+000
1051.00  0.0000E+000
1051.50  0.0000E+000
1052.00  0.0000E+000
1052.50  0.0000E+000
1053.00  0.0000E+000
1053.50  0.0000E+000
1054.00  0.0000E+000
1054.50  0.0000E+000
1055.00  0.0000E+000
1055.50  0.0000E+000
1056.00  0.0000E+000
1056.50  0.0000E+000
1057.00  0.0000E+000
1057.50  0.0000E+000
1058.00  0.0000E+000
1058.50  0.0000E+000
1059.00  0.0000E+000
1059.50  0.0000E+000
1060.00  0.0000E+000
1060.50  0.0000E+000
1061.00  0.0000E+000
1061.50  0.0000E+000
1062.00  0.0000E+000
1062.50  0.0000E+000
1063.00  0.0000E+000
1063.50  0.0000E+000
1064.00  0.0000E+000
1064.50  0.0000E+000
1065.00  0.0000E+000
1065.50  0.0000E+000
1066.00  0.0000E+000
1066.50  0.0000E+000
1067.00  0.0000E+000
1067.50  0.0000E+000
1068.00  0.0000E+000
1068.50  0.0000E+000
1069.00  0.0000E+000
1069.50  0.0000E+000
1070.00  0.0000E+000
1070.50  0.0000E+000
1071.00  0.0000E+000
1071.50  0.0000E+000
1072.00  0.0000E+000
1072.50  0.0000E+000
1073.00  0.0000E+000
1073.50  0.0000E+000
1074.00  0.0000E+000
1074.50  0.0000E+000
1075.00  0.0000E+000
1075.50  0.0000E+000
1076.00  0.0000E+000
1076.50  0.0000E+000
1077.00  0.0000E+000
1077.50  0.0000E+000
1078.00  0.0000E+000
1078.50  0.0000E+000
1079.00  0.0000E+000
1079.50  0.0000E+000
1080.00  0.0000E+000
1080.50  0.0000E+000
1081.00  0.0000E+000
1081.50  0.0000E+000
1082.00  0.0000E+000
1082.50  0.0000E+000
1083.00  0.0000E+000
1083.50  0.0000E+000
1084.00  0.0000E+000
1084.50  0.0000E+000
1085.00  0.0000E+000
1085.50  0.0000E+000
1086.00  0.0000E+000
1086.50  0.0000E+000
1087.00  0.0000E+000
1087.50  0.0000E+000
1088.00  0.0000E+000
1088.50  0.0000E+000
1089.00  0.0000E+000
1089.50  0.0000E+000
1090.00  0.0000E+000
1090.50  0.0000E+000
1091.00  0.0000E+000
1091.50  0.0000E+000
1092.00  0.0000E+000
1092.50  0.0000E+000
1093.00  0.0000E+000
1093.50  0.0000E+000
1094.00  0.0000E+000
1094.50  0.0000E+000
1095.00  0.0000E+000
1095.50  0.0000E+000
1096.00  0.0000E+000
1096.50  0.0000E+000
1097.00  0.0000E+000
1097.50  0.0000E+000
1098.00  0.0000E+000
1098.50  0.0000E+000
1099.00  0.0000E+000
1099.50  0.0000E+000
1100.00  0.0000E+000
1100.50  0.0000E+000
1101.00  0.0000E+000
1101.50  0.0000E+000
1102.00  0.0000E+000
1102.50  0.0000E+000
1103.00  0.0000E+000
1103.50  0.0000E+000
1104.00  0.0000E+000
1104.50  0.0000E+000
1105.00  0.0000E+000
1105.50  0.0000E+000
1106.00  0.0000E+000
1106.50  0.0000E+000
1107.00  0.0000E+000
1107.50  0.0000E+000
1108.00  0.0000E+000
1108.50  0.0000E+000
1109.00  0.0000E+000
1109.50  0.0000E+000
1110.00  0.0000E+000
1110.50  0.0000E+000
1111.00  0.0000E+000
1111.50  0.0000E+000
1112.00  0.0000E+000
1112.50  0.0000E+000
1113.00  0.0000E+000
1113.50  0.0000E+000
1114.00  0.0000E+000
1114.50  0.0000E+000
1115.00  0.0000E+000
1115.50  0.0000E+000
1116.00  0.0000E+000
1116.50  0.0000E+000
1117.00  0.0000E+000
1117.50  0.0000E+000
1118.00  0.0000E+000
1118.50  0.0000E+000
1119.00  0.0000E+000
1119.50  0.0000E+000
1120.00  0.0000E+000
1120.50  0.0000E+000
1121.00  0.0000E+000
1121.50  0.0000E+000
1122.00  0.0000E+000
1122.50  0.0000E+000
1123.00  0.0000E+000
1123.50  0.0000E+000
1124.00  0.0000E+000
1124.50  0.0000E+000
1125.00  0.0000E+000
1125.50  0.0000E+000
1126.00  0.0000E+000
1126.50  0.0000E+000
1127.00  0.0000E+000
1127.50  0.0000E+000
: 6
