" File: 160128_ReferenceSpectra\14.IRR
" RAD->  Wave:366.44nm  Pix:434  Val:  0.000  Time:100ms  Avg:5  Sm:1  Sg:1  Tc:off  SNAP  Xt:1  Ch:1  Xtrig wnmcal >RAD-IS6.CAL
 180.00  0.0000E+000
 180.50  0.0000E+000
 181.00  0.0000E+000
 181.50  0.0000E+000
 182.00  0.0000E+000
 182.50  0.0000E+000
 183.00  0.0000E+000
 183.50  0.0000E+000
 184.00  0.0000E+000
 184.50  0.0000E+000
 185.00  0.0000E+000
 185.50  0.0000E+000
 186.00  0.0000E+000
 186.50  0.0000E+000
 187.00  0.0000E+000
 187.50  0.0000E+000
 188.00  0.0000E+000
 188.50  0.0000E+000
 189.00  0.0000E+000
 189.50  0.0000E+000
 190.00  0.0000E+000
 190.50  0.0000E+000
 191.00  0.0000E+000
 191.50  0.0000E+000
 192.00  0.0000E+000
 192.50  0.0000E+000
 193.00  0.0000E+000
 193.50  0.0000E+000
 194.00  0.0000E+000
 194.50  0.0000E+000
 195.00  0.0000E+000
 195.50  0.0000E+000
 196.00  0.0000E+000
 196.50  0.0000E+000
 197.00  0.0000E+000
 197.50  0.0000E+000
 198.00  0.0000E+000
 198.50  0.0000E+000
 199.00  0.0000E+000
 199.50  0.0000E+000
 200.00  0.0000E+000
 200.50  0.0000E+000
 201.00  0.0000E+000
 201.50  0.0000E+000
 202.00  0.0000E+000
 202.50  0.0000E+000
 203.00  0.0000E+000
 203.50  0.0000E+000
 204.00  0.0000E+000
 204.50  0.0000E+000
 205.00  0.0000E+000
 205.50  0.0000E+000
 206.00  0.0000E+000
 206.50  0.0000E+000
 207.00  0.0000E+000
 207.50  0.0000E+000
 208.00  0.0000E+000
 208.50  0.0000E+000
 209.00  0.0000E+000
 209.50  0.0000E+000
 210.00  0.0000E+000
 210.50  0.0000E+000
 211.00  0.0000E+000
 211.50  0.0000E+000
 212.00  0.0000E+000
 212.50  0.0000E+000
 213.00  0.0000E+000
 213.50  0.0000E+000
 214.00  0.0000E+000
 214.50  0.0000E+000
 215.00  0.0000E+000
 215.50  0.0000E+000
 216.00  0.0000E+000
 216.50  0.0000E+000
 217.00  0.0000E+000
 217.50  0.0000E+000
 218.00  0.0000E+000
 218.50  0.0000E+000
 219.00  0.0000E+000
 219.50  0.0000E+000
 220.00  0.0000E+000
 220.50  0.0000E+000
 221.00  0.0000E+000
 221.50  0.0000E+000
 222.00  0.0000E+000
 222.50  0.0000E+000
 223.00  0.0000E+000
 223.50  0.0000E+000
 224.00  0.0000E+000
 224.50  0.0000E+000
 225.00  0.0000E+000
 225.50  0.0000E+000
 226.00  0.0000E+000
 226.50  0.0000E+000
 227.00  0.0000E+000
 227.50  0.0000E+000
 228.00  0.0000E+000
 228.50  0.0000E+000
 229.00  0.0000E+000
 229.50  0.0000E+000
 230.00  0.0000E+000
 230.50  0.0000E+000
 231.00  0.0000E+000
 231.50  0.0000E+000
 232.00  0.0000E+000
 232.50  0.0000E+000
 233.00  0.0000E+000
 233.50  0.0000E+000
 234.00  0.0000E+000
 234.50  0.0000E+000
 235.00  0.0000E+000
 235.50  0.0000E+000
 236.00  0.0000E+000
 236.50  0.0000E+000
 237.00  0.0000E+000
 237.50  0.0000E+000
 238.00  0.0000E+000
 238.50  0.0000E+000
 239.00  0.0000E+000
 239.50  0.0000E+000
 240.00  0.0000E+000
 240.50  0.0000E+000
 241.00  0.0000E+000
 241.50  0.0000E+000
 242.00  0.0000E+000
 242.50  0.0000E+000
 243.00  0.0000E+000
 243.50  0.0000E+000
 244.00  0.0000E+000
 244.50  0.0000E+000
 245.00  0.0000E+000
 245.50  0.0000E+000
 246.00  0.0000E+000
 246.50  0.0000E+000
 247.00  0.0000E+000
 247.50  0.0000E+000
 248.00  0.0000E+000
 248.50  0.0000E+000
 249.00  0.0000E+000
 249.50  0.0000E+000
 250.00  0.0000E+000
 250.50  0.0000E+000
 251.00  0.0000E+000
 251.50  0.0000E+000
 252.00  0.0000E+000
 252.50  0.0000E+000
 253.00  0.0000E+000
 253.50  0.0000E+000
 254.00  0.0000E+000
 254.50  0.0000E+000
 255.00  0.0000E+000
 255.50  0.0000E+000
 256.00  0.0000E+000
 256.50  0.0000E+000
 257.00  0.0000E+000
 257.50  0.0000E+000
 258.00  0.0000E+000
 258.50  0.0000E+000
 259.00  0.0000E+000
 259.50  0.0000E+000
 260.00  0.0000E+000
 260.50  0.0000E+000
 261.00  0.0000E+000
 261.50  0.0000E+000
 262.00  0.0000E+000
 262.50  0.0000E+000
 263.00  0.0000E+000
 263.50  0.0000E+000
 264.00  0.0000E+000
 264.50  0.0000E+000
 265.00  0.0000E+000
 265.50  0.0000E+000
 266.00  0.0000E+000
 266.50  0.0000E+000
 267.00  0.0000E+000
 267.50  0.0000E+000
 268.00  0.0000E+000
 268.50  0.0000E+000
 269.00  0.0000E+000
 269.50  0.0000E+000
 270.00  0.0000E+000
 270.50  0.0000E+000
 271.00  0.0000E+000
 271.50  0.0000E+000
 272.00  0.0000E+000
 272.50  0.0000E+000
 273.00  0.0000E+000
 273.50  0.0000E+000
 274.00  0.0000E+000
 274.50  0.0000E+000
 275.00  0.0000E+000
 275.50  0.0000E+000
 276.00  0.0000E+000
 276.50  0.0000E+000
 277.00  0.0000E+000
 277.50  0.0000E+000
 278.00  0.0000E+000
 278.50  0.0000E+000
 279.00  0.0000E+000
 279.50  0.0000E+000
 280.00  0.0000E+000
 280.50  0.0000E+000
 281.00  0.0000E+000
 281.50  0.0000E+000
 282.00  0.0000E+000
 282.50  0.0000E+000
 283.00  0.0000E+000
 283.50  0.0000E+000
 284.00  0.0000E+000
 284.50  0.0000E+000
 285.00  0.0000E+000
 285.50  0.0000E+000
 286.00  0.0000E+000
 286.50  0.0000E+000
 287.00  0.0000E+000
 287.50  0.0000E+000
 288.00  0.0000E+000
 288.50  0.0000E+000
 289.00  0.0000E+000
 289.50  0.0000E+000
 290.00  0.0000E+000
 290.50  0.0000E+000
 291.00  0.0000E+000
 291.50  0.0000E+000
 292.00  0.0000E+000
 292.50  0.0000E+000
 293.00  0.0000E+000
 293.50  0.0000E+000
 294.00  0.0000E+000
 294.50  0.0000E+000
 295.00  0.0000E+000
 295.50  0.0000E+000
 296.00  0.0000E+000
 296.50  0.0000E+000
 297.00  0.0000E+000
 297.50  0.0000E+000
 298.00  0.0000E+000
 298.50  0.0000E+000
 299.00  0.0000E+000
 299.50  0.0000E+000
 300.00  0.0000E+000
 300.50  0.0000E+000
 301.00  0.0000E+000
 301.50  0.0000E+000
 302.00  0.0000E+000
 302.50  0.0000E+000
 303.00  0.0000E+000
 303.50  0.0000E+000
 304.00  0.0000E+000
 304.50  0.0000E+000
 305.00  0.0000E+000
 305.50  0.0000E+000
 306.00  0.0000E+000
 306.50  0.0000E+000
 307.00  0.0000E+000
 307.50  0.0000E+000
 308.00  0.0000E+000
 308.50  0.0000E+000
 309.00  0.0000E+000
 309.50  0.0000E+000
 310.00  0.0000E+000
 310.50  0.0000E+000
 311.00  0.0000E+000
 311.50  0.0000E+000
 312.00  0.0000E+000
 312.50  0.0000E+000
 313.00  0.0000E+000
 313.50  0.0000E+000
 314.00  0.0000E+000
 314.50  0.0000E+000
 315.00  0.0000E+000
 315.50  0.0000E+000
 316.00  0.0000E+000
 316.50  0.0000E+000
 317.00  0.0000E+000
 317.50  0.0000E+000
 318.00  0.0000E+000
 318.50  0.0000E+000
 319.00  0.0000E+000
 319.50  0.0000E+000
 320.00  0.0000E+000
 320.50  0.0000E+000
 321.00  0.0000E+000
 321.50  0.0000E+000
 322.00  0.0000E+000
 322.50  0.0000E+000
 323.00  0.0000E+000
 323.50  0.0000E+000
 324.00  0.0000E+000
 324.50  0.0000E+000
 325.00  0.0000E+000
 325.50  0.0000E+000
 326.00  0.0000E+000
 326.50  0.0000E+000
 327.00  0.0000E+000
 327.50  0.0000E+000
 328.00  0.0000E+000
 328.50  0.0000E+000
 329.00  0.0000E+000
 329.50  0.0000E+000
 330.00  0.0000E+000
 330.50  0.0000E+000
 331.00  0.0000E+000
 331.50  0.0000E+000
 332.00  0.0000E+000
 332.50  0.0000E+000
 333.00  0.0000E+000
 333.50  0.0000E+000
 334.00  0.0000E+000
 334.50  0.0000E+000
 335.00  0.0000E+000
 335.50  0.0000E+000
 336.00  0.0000E+000
 336.50  0.0000E+000
 337.00  0.0000E+000
 337.50  0.0000E+000
 338.00  0.0000E+000
 338.50  0.0000E+000
 339.00  0.0000E+000
 339.50  0.0000E+000
 340.00  0.0000E+000
 340.50  0.0000E+000
 341.00  0.0000E+000
 341.50  0.0000E+000
 342.00  0.0000E+000
 342.50  0.0000E+000
 343.00  0.0000E+000
 343.50  0.0000E+000
 344.00  0.0000E+000
 344.50  0.0000E+000
 345.00  0.0000E+000
 345.50  0.0000E+000
 346.00  0.0000E+000
 346.50  0.0000E+000
 347.00  0.0000E+000
 347.50  0.0000E+000
 348.00  0.0000E+000
 348.50  0.0000E+000
 349.00  0.0000E+000
 349.50  0.0000E+000
 350.00  0.0000E+000
 350.50  0.0000E+000
 351.00  0.0000E+000
 351.50  0.0000E+000
 352.00  0.0000E+000
 352.50  0.0000E+000
 353.00  0.0000E+000
 353.50  0.0000E+000
 354.00  0.0000E+000
 354.50  0.0000E+000
 355.00  0.0000E+000
 355.50  0.0000E+000
 356.00  0.0000E+000
 356.50  0.0000E+000
 357.00  0.0000E+000
 357.50  0.0000E+000
 358.00  0.0000E+000
 358.50  0.0000E+000
 359.00  0.0000E+000
 359.50  0.0000E+000
 360.00  1.3571E-008
 360.50  1.2187E-007
 361.00  2.8924E-007
 361.50  3.2353E-007
 362.00  2.0621E-007
 362.50  1.1393E-007
 363.00  4.0209E-008
 363.50  3.5368E-008
 364.00  1.1485E-007
 364.50  2.3623E-007
 365.00  3.9562E-007
 365.50  5.1797E-007
 366.00  6.7638E-007
 366.50  7.1702E-007
 367.00  7.7837E-007
 367.50  8.3547E-007
 368.00  8.5266E-007
 368.50  9.1051E-007
 369.00  9.8424E-007
 369.50  9.4797E-007
 370.00  7.6070E-007
 370.50  6.4608E-007
 371.00  4.5899E-007
 371.50  3.5859E-007
 372.00  3.3004E-007
 372.50  3.6656E-007
 373.00  3.4589E-007
 373.50  4.3361E-007
 374.00  4.8699E-007
 374.50  4.5380E-007
 375.00  4.4809E-007
 375.50  5.7980E-007
 376.00  6.0694E-007
 376.50  7.7516E-007
 377.00  1.0285E-006
 377.50  1.0909E-006
 378.00  1.1487E-006
 378.50  1.1330E-006
 379.00  1.0365E-006
 379.50  9.5630E-007
 380.00  9.4381E-007
 380.50  9.0633E-007
 381.00  8.3573E-007
 381.50  7.1568E-007
 382.00  5.2317E-007
 382.50  3.9083E-007
 383.00  2.3322E-007
 383.50  1.9619E-007
 384.00  2.3739E-007
 384.50  3.5375E-007
 385.00  3.2198E-007
 385.50  3.2452E-007
 386.00  4.5333E-007
 386.50  3.6464E-007
 387.00  4.7999E-007
 387.50  6.0821E-007
 388.00  6.6366E-007
 388.50  7.2165E-007
 389.00  8.5689E-007
 389.50  9.8548E-007
 390.00  1.1923E-006
 390.50  1.4176E-006
 391.00  1.6451E-006
 391.50  1.7275E-006
 392.00  1.8317E-006
 392.50  1.8383E-006
 393.00  1.6664E-006
 393.50  1.5209E-006
 394.00  1.3995E-006
 394.50  1.2880E-006
 395.00  1.2775E-006
 395.50  1.2448E-006
 396.00  1.1943E-006
 396.50  1.1241E-006
 397.00  9.6062E-007
 397.50  8.2339E-007
 398.00  7.3253E-007
 398.50  6.4280E-007
 399.00  5.9045E-007
 399.50  6.7174E-007
 400.00  8.4001E-007
 400.50  8.6176E-007
 401.00  8.9223E-007
 401.50  8.0943E-007
 402.00  5.7638E-007
 402.50  4.2150E-007
 403.00  3.2861E-007
 403.50  2.7264E-007
 404.00  2.2741E-007
 404.50  1.9952E-007
 405.00  1.7818E-007
 405.50  1.5490E-007
 406.00  1.2931E-007
 406.50  1.4519E-007
 407.00  2.0574E-007
 407.50  2.3630E-007
 408.00  2.7250E-007
 408.50  4.0582E-007
 409.00  4.3624E-007
 409.50  4.4852E-007
 410.00  5.8811E-007
 410.50  6.9199E-007
 411.00  7.9939E-007
 411.50  9.4704E-007
 412.00  1.0239E-006
 412.50  1.1024E-006
 413.00  1.1469E-006
 413.50  9.7405E-007
 414.00  9.0469E-007
 414.50  8.2628E-007
 415.00  7.3932E-007
 415.50  7.5127E-007
 416.00  8.4928E-007
 416.50  9.7623E-007
 417.00  1.0993E-006
 417.50  1.2755E-006
 418.00  1.2339E-006
 418.50  1.2928E-006
 419.00  1.1909E-006
 419.50  1.0548E-006
 420.00  9.6243E-007
 420.50  8.8775E-007
 421.00  7.6996E-007
 421.50  6.7473E-007
 422.00  6.7318E-007
 422.50  7.8136E-007
 423.00  8.8589E-007
 423.50  9.6448E-007
 424.00  1.0261E-006
 424.50  1.0399E-006
 425.00  9.0099E-007
 425.50  7.0339E-007
 426.00  5.3999E-007
 426.50  3.6002E-007
 427.00  3.4847E-007
 427.50  5.2822E-007
 428.00  7.5494E-007
 428.50  9.9410E-007
 429.00  1.0779E-006
 429.50  9.9123E-007
 430.00  9.5482E-007
 430.50  9.0513E-007
 431.00  8.5525E-007
 431.50  1.1990E-006
 432.00  1.3851E-006
 432.50  1.7026E-006
 433.00  2.0016E-006
 433.50  2.0106E-006
 434.00  1.9409E-006
 434.50  1.8478E-006
 435.00  1.6164E-006
 435.50  1.4735E-006
 436.00  1.4608E-006
 436.50  1.4824E-006
 437.00  1.3649E-006
 437.50  1.1957E-006
 438.00  1.0606E-006
 438.50  8.5391E-007
 439.00  7.2900E-007
 439.50  8.1577E-007
 440.00  9.5726E-007
 440.50  1.1248E-006
 441.00  1.2853E-006
 441.50  1.3956E-006
 442.00  1.4775E-006
 442.50  1.5459E-006
 443.00  1.6280E-006
 443.50  1.6546E-006
 444.00  1.5441E-006
 444.50  1.3381E-006
 445.00  1.1227E-006
 445.50  9.8493E-007
 446.00  7.6873E-007
 446.50  6.8412E-007
 447.00  6.8915E-007
 447.50  6.2772E-007
 448.00  6.2076E-007
 448.50  6.5668E-007
 449.00  6.4929E-007
 449.50  6.2029E-007
 450.00  6.9860E-007
 450.50  7.3437E-007
 451.00  8.2338E-007
 451.50  8.0242E-007
 452.00  7.7572E-007
 452.50  7.6441E-007
 453.00  7.0939E-007
 453.50  7.6609E-007
 454.00  8.8755E-007
 454.50  9.5175E-007
 455.00  9.2411E-007
 455.50  9.3996E-007
 456.00  8.1140E-007
 456.50  6.7079E-007
 457.00  6.2258E-007
 457.50  6.3735E-007
 458.00  6.8678E-007
 458.50  8.1337E-007
 459.00  9.5732E-007
 459.50  1.0854E-006
 460.00  1.1316E-006
 460.50  1.1979E-006
 461.00  1.1409E-006
 461.50  1.0213E-006
 462.00  9.3437E-007
 462.50  8.7866E-007
 463.00  8.4536E-007
 463.50  8.3694E-007
 464.00  8.1888E-007
 464.50  8.6256E-007
 465.00  7.9297E-007
 465.50  8.1979E-007
 466.00  7.9932E-007
 466.50  7.2966E-007
 467.00  7.3272E-007
 467.50  7.7420E-007
 468.00  8.0855E-007
 468.50  8.5828E-007
 469.00  8.8522E-007
 469.50  9.8313E-007
 470.00  9.9168E-007
 470.50  9.7006E-007
 471.00  1.0142E-006
 471.50  1.0786E-006
 472.00  1.0256E-006
 472.50  1.1233E-006
 473.00  1.2528E-006
 473.50  1.2449E-006
 474.00  1.2452E-006
 474.50  1.2666E-006
 475.00  1.1001E-006
 475.50  9.6355E-007
 476.00  8.1087E-007
 476.50  7.0625E-007
 477.00  6.8002E-007
 477.50  6.5148E-007
 478.00  5.9682E-007
 478.50  6.3062E-007
 479.00  6.0354E-007
 479.50  6.1014E-007
 480.00  7.1458E-007
 480.50  7.9928E-007
 481.00  7.9039E-007
 481.50  7.4166E-007
 482.00  6.5368E-007
 482.50  5.8611E-007
 483.00  5.3034E-007
 483.50  6.2027E-007
 484.00  6.5630E-007
 484.50  7.1623E-007
 485.00  7.9144E-007
 485.50  8.0783E-007
 486.00  7.5213E-007
 486.50  7.0042E-007
 487.00  5.7521E-007
 487.50  4.4946E-007
 488.00  3.8863E-007
 488.50  4.1539E-007
 489.00  4.7924E-007
 489.50  6.2840E-007
 490.00  7.9851E-007
 490.50  9.2290E-007
 491.00  1.0799E-006
 491.50  1.1966E-006
 492.00  1.1395E-006
 492.50  1.1078E-006
 493.00  1.0835E-006
 493.50  1.0183E-006
 494.00  1.0341E-006
 494.50  1.0623E-006
 495.00  9.9740E-007
 495.50  9.5618E-007
 496.00  8.9424E-007
 496.50  8.9215E-007
 497.00  9.6291E-007
 497.50  1.0375E-006
 498.00  1.0850E-006
 498.50  1.1260E-006
 499.00  1.0536E-006
 499.50  1.0012E-006
 500.00  9.8219E-007
 500.50  9.0264E-007
 501.00  8.3503E-007
 501.50  8.8464E-007
 502.00  9.1273E-007
 502.50  9.4331E-007
 503.00  1.0038E-006
 503.50  1.0841E-006
 504.00  1.0287E-006
 504.50  9.6186E-007
 505.00  9.3031E-007
 505.50  9.3994E-007
 506.00  1.0217E-006
 506.50  1.1431E-006
 507.00  1.3593E-006
 507.50  1.4732E-006
 508.00  1.4227E-006
 508.50  1.4383E-006
 509.00  1.3674E-006
 509.50  1.3028E-006
 510.00  1.3645E-006
 510.50  1.4382E-006
 511.00  1.3848E-006
 511.50  1.2808E-006
 512.00  1.1756E-006
 512.50  1.0183E-006
 513.00  8.7632E-007
 513.50  9.8780E-007
 514.00  1.1335E-006
 514.50  1.2362E-006
 515.00  1.4455E-006
 515.50  1.5483E-006
 516.00  1.5740E-006
 516.50  1.5434E-006
 517.00  1.4567E-006
 517.50  1.4196E-006
 518.00  1.3996E-006
 518.50  1.4624E-006
 519.00  1.6173E-006
 519.50  1.6790E-006
 520.00  1.6694E-006
 520.50  1.4985E-006
 521.00  1.2847E-006
 521.50  1.1231E-006
 522.00  1.0717E-006
 522.50  1.1086E-006
 523.00  1.2458E-006
 523.50  1.2823E-006
 524.00  1.3267E-006
 524.50  1.3947E-006
 525.00  1.4061E-006
 525.50  1.4493E-006
 526.00  1.6624E-006
 526.50  1.8360E-006
 527.00  1.9845E-006
 527.50  1.9977E-006
 528.00  1.9466E-006
 528.50  1.8413E-006
 529.00  1.7194E-006
 529.50  1.6585E-006
 530.00  1.7530E-006
 530.50  1.8783E-006
 531.00  1.9936E-006
 531.50  2.0462E-006
 532.00  2.1745E-006
 532.50  2.1955E-006
 533.00  2.1166E-006
 533.50  2.1024E-006
 534.00  2.0724E-006
 534.50  2.0417E-006
 535.00  2.1364E-006
 535.50  2.2807E-006
 536.00  2.4196E-006
 536.50  2.6488E-006
 537.00  2.9065E-006
 537.50  3.1478E-006
 538.00  3.3317E-006
 538.50  3.2580E-006
 539.00  3.0133E-006
 539.50  2.6920E-006
 540.00  2.3355E-006
 540.50  2.1460E-006
 541.00  2.2535E-006
 541.50  2.4637E-006
 542.00  2.7141E-006
 542.50  2.9431E-006
 543.00  3.0679E-006
 543.50  3.1175E-006
 544.00  3.1927E-006
 544.50  3.2673E-006
 545.00  3.3939E-006
 545.50  3.4930E-006
 546.00  3.5483E-006
 546.50  3.5293E-006
 547.00  3.5318E-006
 547.50  3.5828E-006
 548.00  3.6208E-006
 548.50  3.7128E-006
 549.00  3.8865E-006
 549.50  4.0754E-006
 550.00  4.3550E-006
 550.50  4.6186E-006
 551.00  4.7264E-006
 551.50  4.8636E-006
 552.00  5.0643E-006
 552.50  5.1957E-006
 553.00  5.2597E-006
 553.50  5.3097E-006
 554.00  5.1927E-006
 554.50  4.9848E-006
 555.00  4.9138E-006
 555.50  4.9789E-006
 556.00  5.0923E-006
 556.50  5.1676E-006
 557.00  5.2273E-006
 557.50  5.2427E-006
 558.00  5.4525E-006
 558.50  5.6869E-006
 559.00  5.7985E-006
 559.50  5.9634E-006
 560.00  6.1486E-006
 560.50  6.3190E-006
 561.00  6.5598E-006
 561.50  6.7497E-006
 562.00  6.9625E-006
 562.50  7.1265E-006
 563.00  7.2363E-006
 563.50  7.4330E-006
 564.00  7.7081E-006
 564.50  8.0128E-006
 565.00  8.2063E-006
 565.50  8.3345E-006
 566.00  8.6348E-006
 566.50  8.8814E-006
 567.00  9.1862E-006
 567.50  9.7037E-006
 568.00  1.0259E-005
 568.50  1.0798E-005
 569.00  1.1224E-005
 569.50  1.1430E-005
 570.00  1.1706E-005
 570.50  1.1947E-005
 571.00  1.2099E-005
 571.50  1.2319E-005
 572.00  1.2550E-005
 572.50  1.2654E-005
 573.00  1.2817E-005
 573.50  1.3106E-005
 574.00  1.3569E-005
 574.50  1.4157E-005
 575.00  1.4818E-005
 575.50  1.5806E-005
 576.00  1.7008E-005
 576.50  1.8186E-005
 577.00  1.9644E-005
 577.50  2.0819E-005
 578.00  2.1700E-005
 578.50  2.2310E-005
 579.00  2.2468E-005
 579.50  2.2593E-005
 580.00  2.3014E-005
 580.50  2.3464E-005
 581.00  2.4280E-005
 581.50  2.5294E-005
 582.00  2.6562E-005
 582.50  2.7738E-005
 583.00  2.9210E-005
 583.50  3.0806E-005
 584.00  3.2307E-005
 584.50  3.3715E-005
 585.00  3.5124E-005
 585.50  3.6568E-005
 586.00  3.8046E-005
 586.50  3.9843E-005
 587.00  4.1717E-005
 587.50  4.3592E-005
 588.00  4.5484E-005
 588.50  4.7668E-005
 589.00  5.0006E-005
 589.50  5.2604E-005
 590.00  5.5517E-005
 590.50  5.8594E-005
 591.00  6.1906E-005
 591.50  6.5272E-005
 592.00  6.8779E-005
 592.50  7.2467E-005
 593.00  7.6185E-005
 593.50  8.0056E-005
 594.00  8.4193E-005
 594.50  8.8324E-005
 595.00  9.2696E-005
 595.50  9.7418E-005
 596.00  1.0263E-004
 596.50  1.0846E-004
 597.00  1.1494E-004
 597.50  1.2184E-004
 598.00  1.2892E-004
 598.50  1.3625E-004
 599.00  1.4369E-004
 599.50  1.5118E-004
 600.00  1.5919E-004
 600.50  1.6756E-004
 601.00  1.7640E-004
 601.50  1.8564E-004
 602.00  1.9539E-004
 602.50  2.0565E-004
 603.00  2.1633E-004
 603.50  2.2783E-004
 604.00  2.4068E-004
 604.50  2.5414E-004
 605.00  2.6831E-004
 605.50  2.8375E-004
 606.00  2.9960E-004
 606.50  3.1569E-004
 607.00  3.3263E-004
 607.50  3.4992E-004
 608.00  3.6707E-004
 608.50  3.8439E-004
 609.00  4.0221E-004
 609.50  4.2074E-004
 610.00  4.4021E-004
 610.50  4.6130E-004
 611.00  4.8366E-004
 611.50  5.0656E-004
 612.00  5.3019E-004
 612.50  5.5441E-004
 613.00  5.7925E-004
 613.50  6.0574E-004
 614.00  6.3408E-004
 614.50  6.6431E-004
 615.00  6.9648E-004
 615.50  7.3037E-004
 616.00  7.6528E-004
 616.50  8.0083E-004
 617.00  8.3680E-004
 617.50  8.7326E-004
 618.00  9.1152E-004
 618.50  9.5221E-004
 619.00  9.9613E-004
 619.50  1.0440E-003
 620.00  1.0949E-003
 620.50  1.1477E-003
 621.00  1.2026E-003
 621.50  1.2602E-003
 622.00  1.3217E-003
 622.50  1.3880E-003
 623.00  1.4596E-003
 623.50  1.5365E-003
 624.00  1.6179E-003
 624.50  1.7028E-003
 625.00  1.7912E-003
 625.50  1.8834E-003
 626.00  1.9802E-003
 626.50  2.0821E-003
 627.00  2.1899E-003
 627.50  2.3036E-003
 628.00  2.4230E-003
 628.50  2.5483E-003
 629.00  2.6806E-003
 629.50  2.8195E-003
 630.00  2.9655E-003
 630.50  3.1188E-003
 631.00  3.2768E-003
 631.50  3.4364E-003
 632.00  3.5965E-003
 632.50  3.7562E-003
 633.00  3.9161E-003
 633.50  4.0768E-003
 634.00  4.2385E-003
 634.50  4.3998E-003
 635.00  4.5592E-003
 635.50  4.7152E-003
 636.00  4.8659E-003
 636.50  5.0105E-003
 637.00  5.1469E-003
 637.50  5.2733E-003
 638.00  5.3881E-003
 638.50  5.4875E-003
 639.00  5.5658E-003
 639.50  5.6179E-003
 640.00  5.6385E-003
 640.50  5.6236E-003
 641.00  5.5704E-003
 641.50  5.4783E-003
 642.00  5.3486E-003
 642.50  5.1851E-003
 643.00  4.9914E-003
 643.50  4.7730E-003
 644.00  4.5349E-003
 644.50  4.2828E-003
 645.00  4.0245E-003
 645.50  3.7652E-003
 646.00  3.5121E-003
 646.50  3.2700E-003
 647.00  3.0415E-003
 647.50  2.8277E-003
 648.00  2.6286E-003
 648.50  2.4433E-003
 649.00  2.2716E-003
 649.50  2.1125E-003
 650.00  1.9663E-003
 650.50  1.8327E-003
 651.00  1.7095E-003
 651.50  1.5950E-003
 652.00  1.4890E-003
 652.50  1.3905E-003
 653.00  1.2981E-003
 653.50  1.2121E-003
 654.00  1.1315E-003
 654.50  1.0548E-003
 655.00  9.8204E-004
 655.50  9.1378E-004
 656.00  8.4964E-004
 656.50  7.9061E-004
 657.00  7.3698E-004
 657.50  6.8792E-004
 658.00  6.4247E-004
 658.50  6.0082E-004
 659.00  5.6198E-004
 659.50  5.2567E-004
 660.00  4.9214E-004
 660.50  4.6110E-004
 661.00  4.3257E-004
 661.50  4.0653E-004
 662.00  3.8284E-004
 662.50  3.6135E-004
 663.00  3.4177E-004
 663.50  3.2373E-004
 664.00  3.0725E-004
 664.50  2.9212E-004
 665.00  2.7789E-004
 665.50  2.6462E-004
 666.00  2.5171E-004
 666.50  2.3919E-004
 667.00  2.2764E-004
 667.50  2.1705E-004
 668.00  2.0767E-004
 668.50  1.9917E-004
 669.00  1.9100E-004
 669.50  1.8349E-004
 670.00  1.7575E-004
 670.50  1.6853E-004
 671.00  1.6190E-004
 671.50  1.5616E-004
 672.00  1.5123E-004
 672.50  1.4684E-004
 673.00  1.4245E-004
 673.50  1.3877E-004
 674.00  1.3489E-004
 674.50  1.3049E-004
 675.00  1.2616E-004
 675.50  1.2209E-004
 676.00  1.1803E-004
 676.50  1.1439E-004
 677.00  1.1120E-004
 677.50  1.0806E-004
 678.00  1.0526E-004
 678.50  1.0226E-004
 679.00  9.9232E-005
 679.50  9.6263E-005
 680.00  9.3379E-005
 680.50  9.0467E-005
 681.00  8.8020E-005
 681.50  8.5733E-005
 682.00  8.3828E-005
 682.50  8.2335E-005
 683.00  8.0658E-005
 683.50  7.9269E-005
 684.00  7.7855E-005
 684.50  7.6545E-005
 685.00  7.5081E-005
 685.50  7.4057E-005
 686.00  7.2714E-005
 686.50  7.1952E-005
 687.00  7.0821E-005
 687.50  6.9813E-005
 688.00  6.8414E-005
 688.50  6.6964E-005
 689.00  6.5741E-005
 689.50  6.4483E-005
 690.00  6.3303E-005
 690.50  6.2747E-005
 691.00  6.2124E-005
 691.50  6.1829E-005
 692.00  6.2314E-005
 692.50  6.2655E-005
 693.00  6.2436E-005
 693.50  6.2032E-005
 694.00  6.1044E-005
 694.50  5.9984E-005
 695.00  5.9416E-005
 695.50  5.9158E-005
 696.00  5.9161E-005
 696.50  5.9160E-005
 697.00  5.8947E-005
 697.50  5.8557E-005
 698.00  5.7952E-005
 698.50  5.7413E-005
 699.00  5.6581E-005
 699.50  5.5160E-005
 700.00  5.4147E-005
 700.50  5.3127E-005
 701.00  5.1667E-005
 701.50  5.0592E-005
 702.00  4.9204E-005
 702.50  4.7450E-005
 703.00  4.5952E-005
 703.50  4.4565E-005
 704.00  4.3611E-005
 704.50  4.3143E-005
 705.00  4.2835E-005
 705.50  4.2622E-005
 706.00  4.2673E-005
 706.50  4.2691E-005
 707.00  4.3098E-005
 707.50  4.3983E-005
 708.00  4.4733E-005
 708.50  4.5671E-005
 709.00  4.6360E-005
 709.50  4.6184E-005
 710.00  4.5590E-005
 710.50  4.4875E-005
 711.00  4.4163E-005
 711.50  4.4184E-005
 712.00  4.4689E-005
 712.50  4.5237E-005
 713.00  4.4936E-005
 713.50  4.4587E-005
 714.00  4.2794E-005
 714.50  4.0960E-005
 715.00  3.9266E-005
 715.50  3.7795E-005
 716.00  3.6618E-005
 716.50  3.6141E-005
 717.00  3.5607E-005
 717.50  3.5024E-005
 718.00  3.4756E-005
 718.50  3.3926E-005
 719.00  3.2984E-005
 719.50  3.2078E-005
 720.00  3.1663E-005
 720.50  3.1409E-005
 721.00  3.1728E-005
 721.50  3.2414E-005
 722.00  3.2849E-005
 722.50  3.3031E-005
 723.00  3.3203E-005
 723.50  3.3267E-005
 724.00  3.2637E-005
 724.50  3.2011E-005
 725.00  3.1909E-005
 725.50  3.2210E-005
 726.00  3.1868E-005
 726.50  3.2380E-005
 727.00  3.2417E-005
 727.50  3.1552E-005
 728.00  3.0789E-005
 728.50  3.0090E-005
 729.00  2.9437E-005
 729.50  2.8838E-005
 730.00  2.8788E-005
 730.50  2.9180E-005
 731.00  2.8909E-005
 731.50  2.8989E-005
 732.00  2.9021E-005
 732.50  2.9142E-005
 733.00  2.8840E-005
 733.50  2.9166E-005
 734.00  2.9327E-005
 734.50  2.9682E-005
 735.00  2.9993E-005
 735.50  2.9633E-005
 736.00  2.8769E-005
 736.50  2.7914E-005
 737.00  2.6993E-005
 737.50  2.6391E-005
 738.00  2.6156E-005
 738.50  2.6799E-005
 739.00  2.6831E-005
 739.50  2.7132E-005
 740.00  2.7554E-005
 740.50  2.8321E-005
 741.00  2.8746E-005
 741.50  2.9401E-005
 742.00  2.8957E-005
 742.50  2.8231E-005
 743.00  2.7386E-005
 743.50  2.6350E-005
 744.00  2.5590E-005
 744.50  2.5235E-005
 745.00  2.4819E-005
 745.50  2.4172E-005
 746.00  2.4055E-005
 746.50  2.3761E-005
 747.00  2.3433E-005
 747.50  2.3128E-005
 748.00  2.3112E-005
 748.50  2.3505E-005
 749.00  2.3477E-005
 749.50  2.4235E-005
 750.00  2.5765E-005
 750.50  2.7086E-005
 751.00  2.8124E-005
 751.50  2.9789E-005
 752.00  3.0914E-005
 752.50  3.1073E-005
 753.00  3.0658E-005
 753.50  2.9484E-005
 754.00  2.7625E-005
 754.50  2.5879E-005
 755.00  2.4961E-005
 755.50  2.4692E-005
 756.00  2.5581E-005
 756.50  2.5669E-005
 757.00  2.5161E-005
 757.50  2.3706E-005
 758.00  2.2067E-005
 758.50  2.0633E-005
 759.00  2.0579E-005
 759.50  2.1826E-005
 760.00  2.3611E-005
 760.50  2.5273E-005
 761.00  2.6631E-005
 761.50  2.6437E-005
 762.00  2.5338E-005
 762.50  2.4330E-005
 763.00  2.3335E-005
 763.50  2.3607E-005
 764.00  2.5361E-005
 764.50  2.6667E-005
 765.00  2.7368E-005
 765.50  2.7799E-005
 766.00  2.5531E-005
 766.50  2.3763E-005
 767.00  2.1725E-005
 767.50  1.9613E-005
 768.00  1.7750E-005
 768.50  1.6990E-005
 769.00  1.7124E-005
 769.50  1.7989E-005
 770.00  1.8711E-005
 770.50  1.9381E-005
 771.00  1.9727E-005
 771.50  1.9392E-005
 772.00  1.8704E-005
 772.50  1.8106E-005
 773.00  1.7896E-005
 773.50  1.6482E-005
 774.00  1.6415E-005
 774.50  1.6683E-005
 775.00  1.7702E-005
 775.50  1.8064E-005
 776.00  1.9690E-005
 776.50  2.0183E-005
 777.00  2.0138E-005
 777.50  1.9579E-005
 778.00  1.9228E-005
 778.50  1.8024E-005
 779.00  1.6535E-005
 779.50  1.5898E-005
 780.00  1.5746E-005
 780.50  1.5469E-005
 781.00  1.6039E-005
 781.50  1.6658E-005
 782.00  1.8159E-005
 782.50  1.8031E-005
 783.00  1.8198E-005
 783.50  1.7985E-005
 784.00  1.9389E-005
 784.50  1.9119E-005
 785.00  1.9246E-005
 785.50  1.8254E-005
 786.00  1.6587E-005
 786.50  1.4601E-005
 787.00  1.3411E-005
 787.50  1.3434E-005
 788.00  1.4720E-005
 788.50  1.5949E-005
 789.00  1.6748E-005
 789.50  1.7400E-005
 790.00  1.8175E-005
 790.50  1.8160E-005
 791.00  1.8618E-005
 791.50  1.9023E-005
 792.00  1.8694E-005
 792.50  1.7412E-005
 793.00  1.7195E-005
 793.50  1.5848E-005
 794.00  1.4851E-005
 794.50  1.5105E-005
 795.00  1.5472E-005
 795.50  1.5887E-005
 796.00  1.7200E-005
 796.50  1.8122E-005
 797.00  1.8330E-005
 797.50  1.8133E-005
 798.00  1.7193E-005
 798.50  1.5298E-005
 799.00  1.3862E-005
 799.50  1.2157E-005
 800.00  1.0337E-005
 800.50  8.8484E-006
 801.00  9.1498E-006
 801.50  8.9722E-006
 802.00  9.7128E-006
 802.50  1.1536E-005
 803.00  1.2788E-005
 803.50  1.2162E-005
 804.00  1.1407E-005
 804.50  1.0640E-005
 805.00  9.4014E-006
 805.50  8.1324E-006
 806.00  7.4817E-006
 806.50  6.9368E-006
 807.00  6.2788E-006
 807.50  6.0811E-006
 808.00  6.4382E-006
 808.50  7.1521E-006
 809.00  8.0345E-006
 809.50  9.3406E-006
 810.00  9.9399E-006
 810.50  1.0064E-005
 811.00  1.0654E-005
 811.50  1.0432E-005
 812.00  9.6509E-006
 812.50  9.9265E-006
 813.00  1.0355E-005
 813.50  9.5025E-006
 814.00  9.6297E-006
 814.50  1.1064E-005
 815.00  1.1223E-005
 815.50  1.1189E-005
 816.00  1.1773E-005
 816.50  1.1787E-005
 817.00  1.1029E-005
 817.50  1.1323E-005
 818.00  1.2175E-005
 818.50  1.2394E-005
 819.00  1.2077E-005
 819.50  1.2104E-005
 820.00  1.1439E-005
 820.50  1.0343E-005
 821.00  1.0320E-005
 821.50  8.7822E-006
 822.00  8.2672E-006
 822.50  7.8528E-006
 823.00  8.2909E-006
 823.50  9.1879E-006
 824.00  1.2136E-005
 824.50  1.2852E-005
 825.00  1.4083E-005
 825.50  1.4475E-005
 826.00  1.3216E-005
 826.50  1.2151E-005
 827.00  1.1322E-005
 827.50  9.1063E-006
 828.00  7.5184E-006
 828.50  6.7767E-006
 829.00  6.2775E-006
 829.50  6.5696E-006
 830.00  7.5104E-006
 830.50  7.6549E-006
 831.00  7.4218E-006
 831.50  7.1503E-006
 832.00  9.0914E-006
 832.50  1.1411E-005
 833.00  1.4400E-005
 833.50  1.6972E-005
 834.00  1.8176E-005
 834.50  1.7840E-005
 835.00  1.7136E-005
 835.50  1.6311E-005
 836.00  1.4356E-005
 836.50  1.3048E-005
 837.00  1.2745E-005
 837.50  1.2031E-005
 838.00  1.1198E-005
 838.50  1.1623E-005
 839.00  1.1640E-005
 839.50  1.0843E-005
 840.00  1.0517E-005
 840.50  1.0437E-005
 841.00  1.0814E-005
 841.50  1.1923E-005
 842.00  1.2435E-005
 842.50  1.2162E-005
 843.00  1.1695E-005
 843.50  8.9598E-006
 844.00  6.1189E-006
 844.50  4.3060E-006
 845.00  4.6283E-006
 845.50  5.1270E-006
 846.00  6.4496E-006
 846.50  8.0989E-006
 847.00  9.9947E-006
 847.50  9.8541E-006
 848.00  9.4755E-006
 848.50  9.0099E-006
 849.00  7.4003E-006
 849.50  6.2265E-006
 850.00  7.6769E-006
 850.50  8.9293E-006
 851.00  1.0403E-005
 851.50  1.1958E-005
 852.00  1.1911E-005
 852.50  1.1984E-005
 853.00  1.2711E-005
 853.50  1.3441E-005
 854.00  1.4572E-005
 854.50  1.6539E-005
 855.00  1.5076E-005
 855.50  1.5416E-005
 856.00  1.3772E-005
 856.50  1.1545E-005
 857.00  9.1740E-006
 857.50  8.0991E-006
 858.00  6.9666E-006
 858.50  8.3395E-006
 859.00  1.0662E-005
 859.50  1.2293E-005
 860.00  1.4404E-005
 860.50  1.5475E-005
 861.00  1.4366E-005
 861.50  1.3507E-005
 862.00  1.2892E-005
 862.50  1.1508E-005
 863.00  1.1459E-005
 863.50  1.1291E-005
 864.00  1.2061E-005
 864.50  1.2563E-005
 865.00  1.2467E-005
 865.50  1.2115E-005
 866.00  1.3140E-005
 866.50  1.5467E-005
 867.00  1.5232E-005
 867.50  1.5712E-005
 868.00  1.7825E-005
 868.50  1.8221E-005
 869.00  1.9402E-005
 869.50  2.6415E-005
 870.00  3.2233E-005
 870.50  3.5377E-005
 871.00  3.7047E-005
 871.50  3.5699E-005
 872.00  3.3122E-005
 872.50  3.3723E-005
 873.00  3.5203E-005
 873.50  3.7823E-005
 874.00  4.2938E-005
 874.50  4.3517E-005
 875.00  3.9712E-005
 875.50  3.4388E-005
 876.00  2.7944E-005
 876.50  2.1749E-005
 877.00  1.7382E-005
 877.50  1.2247E-005
 878.00  1.6414E-005
 878.50  1.8433E-005
 879.00  1.9705E-005
 879.50  2.1026E-005
 880.00  2.4398E-005
 880.50  2.6245E-005
 881.00  2.7527E-005
 881.50  3.0575E-005
 882.00  3.5028E-005
 882.50  3.8603E-005
 883.00  4.1652E-005
 883.50  4.3024E-005
 884.00  4.1864E-005
 884.50  3.8923E-005
 885.00  3.4655E-005
 885.50  3.2901E-005
 886.00  3.2681E-005
 886.50  3.4128E-005
 887.00  3.6701E-005
 887.50  3.5719E-005
 888.00  3.2616E-005
 888.50  2.9977E-005
 889.00  2.4464E-005
 889.50  1.8043E-005
 890.00  1.5311E-005
 890.50  1.1622E-005
 891.00  1.1058E-005
 891.50  8.7700E-006
 892.00  6.9000E-006
 892.50  4.9065E-006
 893.00  5.1269E-006
 893.50  4.8759E-006
 894.00  9.4422E-006
 894.50  1.3117E-005
 895.00  1.5468E-005
 895.50  1.5259E-005
 896.00  1.3716E-005
 896.50  1.2426E-005
 897.00  1.2534E-005
 897.50  1.3461E-005
 898.00  1.5909E-005
 898.50  1.9355E-005
 899.00  1.8624E-005
 899.50  1.5505E-005
 900.00  1.2677E-005
 900.50  9.4077E-006
 901.00  4.0877E-006
 901.50  5.0451E-006
 902.00  5.9081E-006
 902.50  7.3604E-006
 903.00  8.1422E-006
 903.50  8.4073E-006
 904.00  6.4452E-006
 904.50  7.3621E-006
 905.00  6.8756E-006
 905.50  7.8887E-006
 906.00  9.5894E-006
 906.50  1.1259E-005
 907.00  9.7962E-006
 907.50  8.2587E-006
 908.00  6.7684E-006
 908.50  6.6533E-006
 909.00  9.1262E-006
 909.50  1.3395E-005
 910.00  1.7724E-005
 910.50  2.3053E-005
 911.00  2.8382E-005
 911.50  3.1446E-005
 912.00  3.2237E-005
 912.50  3.1680E-005
 913.00  3.0586E-005
 913.50  2.7295E-005
 914.00  2.5772E-005
 914.50  2.5068E-005
 915.00  2.5761E-005
 915.50  2.8476E-005
 916.00  3.4371E-005
 916.50  3.7011E-005
 917.00  3.9089E-005
 917.50  3.9186E-005
 918.00  3.3483E-005
 918.50  2.7342E-005
 919.00  2.0328E-005
 919.50  1.7967E-005
 920.00  1.6113E-005
 920.50  1.4987E-005
 921.00  1.3873E-005
 921.50  1.6886E-005
 922.00  1.9303E-005
 922.50  1.8739E-005
 923.00  2.1300E-005
 923.50  2.3329E-005
 924.00  2.3572E-005
 924.50  2.6568E-005
 925.00  3.0218E-005
 925.50  3.0427E-005
 926.00  3.5075E-005
 926.50  4.0906E-005
 927.00  4.7539E-005
 927.50  5.3344E-005
 928.00  6.1020E-005
 928.50  6.3494E-005
 929.00  6.3375E-005
 929.50  5.9639E-005
 930.00  5.3179E-005
 930.50  4.7440E-005
 931.00  4.2519E-005
 931.50  3.7079E-005
 932.00  3.2539E-005
 932.50  3.0668E-005
 933.00  2.9749E-005
 933.50  3.2129E-005
 934.00  3.4554E-005
 934.50  3.2438E-005
 935.00  2.9502E-005
 935.50  2.3023E-005
 936.00  1.5609E-005
 936.50  1.5451E-005
 937.00  1.7298E-005
 937.50  2.1529E-005
 938.00  3.0532E-005
 938.50  3.5434E-005
 939.00  3.5716E-005
 939.50  3.9635E-005
 940.00  4.1721E-005
 940.50  3.5822E-005
 941.00  3.2191E-005
 941.50  3.2955E-005
 942.00  3.3164E-005
 942.50  3.2662E-005
 943.00  3.8734E-005
 943.50  3.9228E-005
 944.00  3.3262E-005
 944.50  3.2002E-005
 945.00  2.7266E-005
 945.50  2.3643E-005
 946.00  2.3582E-005
 946.50  2.9574E-005
 947.00  3.4110E-005
 947.50  3.9756E-005
 948.00  4.3191E-005
 948.50  4.4555E-005
 949.00  4.3537E-005
 949.50  4.3733E-005
 950.00  4.9158E-005
 950.50  5.4735E-005
 951.00  5.6506E-005
 951.50  6.2093E-005
 952.00  5.9932E-005
 952.50  5.9116E-005
 953.00  6.3325E-005
 953.50  6.5405E-005
 954.00  6.2080E-005
 954.50  6.3294E-005
 955.00  5.5709E-005
 955.50  4.2584E-005
 956.00  3.6015E-005
 956.50  3.1607E-005
 957.00  2.9035E-005
 957.50  3.1073E-005
 958.00  3.4963E-005
 958.50  3.5985E-005
 959.00  3.2392E-005
 959.50  3.1488E-005
 960.00  3.3014E-005
 960.50  4.1608E-005
 961.00  4.7113E-005
 961.50  6.0730E-005
 962.00  6.6084E-005
 962.50  6.5618E-005
 963.00  5.8884E-005
 963.50  5.7612E-005
 964.00  3.7779E-005
 964.50  2.4404E-005
 965.00  1.3384E-005
 965.50  1.3139E-006
 966.00  0.0000E+000
 966.50  0.0000E+000
 967.00  0.0000E+000
 967.50  0.0000E+000
 968.00  0.0000E+000
 968.50  1.7997E-006
 969.00  1.1296E-005
 969.50  2.7392E-005
 970.00  4.1665E-005
 970.50  4.8717E-005
 971.00  5.2090E-005
 971.50  5.8138E-005
 972.00  6.2686E-005
 972.50  7.1697E-005
 973.00  8.1952E-005
 973.50  8.5732E-005
 974.00  8.6314E-005
 974.50  8.8533E-005
 975.00  8.5476E-005
 975.50  8.4537E-005
 976.00  6.8199E-005
 976.50  5.3595E-005
 977.00  3.4032E-005
 977.50  1.0412E-005
 978.00  1.0329E-006
 978.50  0.0000E+000
 979.00  0.0000E+000
 979.50  0.0000E+000
 980.00  0.0000E+000
 980.50  0.0000E+000
 981.00  0.0000E+000
 981.50  0.0000E+000
 982.00  2.4342E-006
 982.50  8.0224E-006
 983.00  2.1126E-005
 983.50  2.4964E-005
 984.00  3.5394E-005
 984.50  5.1365E-005
 985.00  5.5089E-005
 985.50  6.5747E-005
 986.00  8.6271E-005
 986.50  9.6303E-005
 987.00  9.2866E-005
 987.50  9.6716E-005
 988.00  8.5692E-005
 988.50  6.0285E-005
 989.00  4.2625E-005
 989.50  4.2530E-005
 990.00  5.5650E-005
 990.50  7.1137E-005
 991.00  8.8645E-005
 991.50  1.0939E-004
 992.00  1.2257E-004
 992.50  1.2713E-004
 993.00  1.2981E-004
 993.50  1.2352E-004
 994.00  1.0890E-004
 994.50  9.5745E-005
 995.00  8.5032E-005
 995.50  8.0222E-005
 996.00  7.6235E-005
 996.50  7.3608E-005
 997.00  6.5477E-005
 997.50  6.5750E-005
 998.00  7.2867E-005
 998.50  7.3701E-005
 999.00  6.5306E-005
 999.50  7.6417E-005
1000.00  4.7682E-005
1000.50  2.3454E-006
1001.00  0.0000E+000
1001.50  0.0000E+000
1002.00  0.0000E+000
1002.50  0.0000E+000
1003.00  0.0000E+000
1003.50  0.0000E+000
1004.00  0.0000E+000
1004.50  0.0000E+000
1005.00  0.0000E+000
1005.50  0.0000E+000
1006.00  0.0000E+000
1006.50  0.0000E+000
1007.00  0.0000E+000
1007.50  0.0000E+000
1008.00  0.0000E+000
1008.50  0.0000E+000
1009.00  0.0000E+000
1009.50  0.0000E+000
1010.00  0.0000E+000
1010.50  0.0000E+000
1011.00  0.0000E+000
1011.50  0.0000E+000
1012.00  0.0000E+000
1012.50  0.0000E+000
1013.00  0.0000E+000
1013.50  0.0000E+000
1014.00  0.0000E+000
1014.50  0.0000E+000
1015.00  0.0000E+000
1015.50  0.0000E+000
1016.00  0.0000E+000
1016.50  0.0000E+000
1017.00  0.0000E+000
1017.50  0.0000E+000
1018.00  0.0000E+000
1018.50  0.0000E+000
1019.00  0.0000E+000
1019.50  0.0000E+000
1020.00  0.0000E+000
1020.50  0.0000E+000
1021.00  0.0000E+000
1021.50  0.0000E+000
1022.00  0.0000E+000
1022.50  0.0000E+000
1023.00  0.0000E+000
1023.50  0.0000E+000
1024.00  0.0000E+000
1024.50  0.0000E+000
1025.00  0.0000E+000
1025.50  0.0000E+000
1026.00  0.0000E+000
1026.50  0.0000E+000
1027.00  0.0000E+000
1027.50  0.0000E+000
1028.00  0.0000E+000
1028.50  0.0000E+000
1029.00  0.0000E+000
1029.50  0.0000E+000
1030.00  0.0000E+000
1030.50  0.0000E+000
1031.00  0.0000E+000
1031.50  0.0000E+000
1032.00  0.0000E+000
1032.50  0.0000E+000
1033.00  0.0000E+000
1033.50  0.0000E+000
1034.00  0.0000E+000
1034.50  0.0000E+000
1035.00  0.0000E+000
1035.50  0.0000E+000
1036.00  0.0000E+000
1036.50  0.0000E+000
1037.00  0.0000E+000
1037.50  0.0000E+000
1038.00  0.0000E+000
1038.50  0.0000E+000
1039.00  0.0000E+000
1039.50  0.0000E+000
1040.00  0.0000E+000
1040.50  0.0000E+000
1041.00  0.0000E+000
1041.50  0.0000E+000
1042.00  0.0000E+000
1042.50  0.0000E+000
1043.00  0.0000E+000
1043.50  0.0000E+000
1044.00  0.0000E+000
1044.50  0.0000E+000
1045.00  0.0000E+000
1045.50  0.0000E+000
1046.00  0.0000E+000
1046.50  0.0000E+000
1047.00  0.0000E+000
1047.50  0.0000E+000
1048.00  0.0000E+000
1048.50  0.0000E+000
1049.00  0.0000E+000
1049.50  0.0000E+000
1050.00  0.0000E+000
1050.50  0.0000E+000
1051.00  0.0000E+000
1051.50  0.0000E+000
1052.00  0.0000E+000
1052.50  0.0000E+000
1053.00  0.0000E+000
1053.50  0.0000E+000
1054.00  0.0000E+000
1054.50  0.0000E+000
1055.00  0.0000E+000
1055.50  0.0000E+000
1056.00  0.0000E+000
1056.50  0.0000E+000
1057.00  0.0000E+000
1057.50  0.0000E+000
1058.00  0.0000E+000
1058.50  0.0000E+000
1059.00  0.0000E+000
1059.50  0.0000E+000
1060.00  0.0000E+000
1060.50  0.0000E+000
1061.00  0.0000E+000
1061.50  0.0000E+000
1062.00  0.0000E+000
1062.50  0.0000E+000
1063.00  0.0000E+000
1063.50  0.0000E+000
1064.00  0.0000E+000
1064.50  0.0000E+000
1065.00  0.0000E+000
1065.50  0.0000E+000
1066.00  0.0000E+000
1066.50  0.0000E+000
1067.00  0.0000E+000
1067.50  0.0000E+000
1068.00  0.0000E+000
1068.50  0.0000E+000
1069.00  0.0000E+000
1069.50  0.0000E+000
1070.00  0.0000E+000
1070.50  0.0000E+000
1071.00  0.0000E+000
1071.50  0.0000E+000
1072.00  0.0000E+000
1072.50  0.0000E+000
1073.00  0.0000E+000
1073.50  0.0000E+000
1074.00  0.0000E+000
1074.50  0.0000E+000
1075.00  0.0000E+000
1075.50  0.0000E+000
1076.00  0.0000E+000
1076.50  0.0000E+000
1077.00  0.0000E+000
1077.50  0.0000E+000
1078.00  0.0000E+000
1078.50  0.0000E+000
1079.00  0.0000E+000
1079.50  0.0000E+000
1080.00  0.0000E+000
1080.50  0.0000E+000
1081.00  0.0000E+000
1081.50  0.0000E+000
1082.00  0.0000E+000
1082.50  0.0000E+000
1083.00  0.0000E+000
1083.50  0.0000E+000
1084.00  0.0000E+000
1084.50  0.0000E+000
1085.00  0.0000E+000
1085.50  0.0000E+000
1086.00  0.0000E+000
1086.50  0.0000E+000
1087.00  0.0000E+000
1087.50  0.0000E+000
1088.00  0.0000E+000
1088.50  0.0000E+000
1089.00  0.0000E+000
1089.50  0.0000E+000
1090.00  0.0000E+000
1090.50  0.0000E+000
1091.00  0.0000E+000
1091.50  0.0000E+000
1092.00  0.0000E+000
1092.50  0.0000E+000
1093.00  0.0000E+000
1093.50  0.0000E+000
1094.00  0.0000E+000
1094.50  0.0000E+000
1095.00  0.0000E+000
1095.50  0.0000E+000
1096.00  0.0000E+000
1096.50  0.0000E+000
1097.00  0.0000E+000
1097.50  0.0000E+000
1098.00  0.0000E+000
1098.50  0.0000E+000
1099.00  0.0000E+000
1099.50  0.0000E+000
1100.00  0.0000E+000
1100.50  0.0000E+000
1101.00  0.0000E+000
1101.50  0.0000E+000
1102.00  0.0000E+000
1102.50  0.0000E+000
1103.00  0.0000E+000
1103.50  0.0000E+000
1104.00  0.0000E+000
1104.50  0.0000E+000
1105.00  0.0000E+000
1105.50  0.0000E+000
1106.00  0.0000E+000
1106.50  0.0000E+000
1107.00  0.0000E+000
1107.50  0.0000E+000
1108.00  0.0000E+000
1108.50  0.0000E+000
1109.00  0.0000E+000
1109.50  0.0000E+000
1110.00  0.0000E+000
1110.50  0.0000E+000
1111.00  0.0000E+000
1111.50  0.0000E+000
1112.00  0.0000E+000
1112.50  0.0000E+000
1113.00  0.0000E+000
1113.50  0.0000E+000
1114.00  0.0000E+000
1114.50  0.0000E+000
1115.00  0.0000E+000
1115.50  0.0000E+000
1116.00  0.0000E+000
1116.50  0.0000E+000
1117.00  0.0000E+000
1117.50  0.0000E+000
1118.00  0.0000E+000
1118.50  0.0000E+000
1119.00  0.0000E+000
1119.50  0.0000E+000
1120.00  0.0000E+000
1120.50  0.0000E+000
1121.00  0.0000E+000
1121.50  0.0000E+000
1122.00  0.0000E+000
1122.50  0.0000E+000
1123.00  0.0000E+000
1123.50  0.0000E+000
1124.00  0.0000E+000
1124.50  0.0000E+000
1125.00  0.0000E+000
1125.50  0.0000E+000
1126.00  0.0000E+000
1126.50  0.0000E+000
1127.00  0.0000E+000
1127.50  0.0000E+000
: 6
