" File: 160128_ReferenceSpectra\15.IRR
" RAD->  Wave:366.44nm  Pix:434  Val:  0.000  Time:250ms  Avg:5  Sm:1  Sg:1  Tc:off  SNAP  Xt:1  Ch:1  Xtrig wnmcal >RAD-IS6.CAL
 180.00  0.0000E+000
 180.50  0.0000E+000
 181.00  0.0000E+000
 181.50  0.0000E+000
 182.00  0.0000E+000
 182.50  0.0000E+000
 183.00  0.0000E+000
 183.50  0.0000E+000
 184.00  0.0000E+000
 184.50  0.0000E+000
 185.00  0.0000E+000
 185.50  0.0000E+000
 186.00  0.0000E+000
 186.50  0.0000E+000
 187.00  0.0000E+000
 187.50  0.0000E+000
 188.00  0.0000E+000
 188.50  0.0000E+000
 189.00  0.0000E+000
 189.50  0.0000E+000
 190.00  0.0000E+000
 190.50  0.0000E+000
 191.00  0.0000E+000
 191.50  0.0000E+000
 192.00  0.0000E+000
 192.50  0.0000E+000
 193.00  0.0000E+000
 193.50  0.0000E+000
 194.00  0.0000E+000
 194.50  0.0000E+000
 195.00  0.0000E+000
 195.50  0.0000E+000
 196.00  0.0000E+000
 196.50  0.0000E+000
 197.00  0.0000E+000
 197.50  0.0000E+000
 198.00  0.0000E+000
 198.50  0.0000E+000
 199.00  0.0000E+000
 199.50  0.0000E+000
 200.00  0.0000E+000
 200.50  0.0000E+000
 201.00  0.0000E+000
 201.50  0.0000E+000
 202.00  0.0000E+000
 202.50  0.0000E+000
 203.00  0.0000E+000
 203.50  0.0000E+000
 204.00  0.0000E+000
 204.50  0.0000E+000
 205.00  0.0000E+000
 205.50  0.0000E+000
 206.00  0.0000E+000
 206.50  0.0000E+000
 207.00  0.0000E+000
 207.50  0.0000E+000
 208.00  0.0000E+000
 208.50  0.0000E+000
 209.00  0.0000E+000
 209.50  0.0000E+000
 210.00  0.0000E+000
 210.50  0.0000E+000
 211.00  0.0000E+000
 211.50  0.0000E+000
 212.00  0.0000E+000
 212.50  0.0000E+000
 213.00  0.0000E+000
 213.50  0.0000E+000
 214.00  0.0000E+000
 214.50  0.0000E+000
 215.00  0.0000E+000
 215.50  0.0000E+000
 216.00  0.0000E+000
 216.50  0.0000E+000
 217.00  0.0000E+000
 217.50  0.0000E+000
 218.00  0.0000E+000
 218.50  0.0000E+000
 219.00  0.0000E+000
 219.50  0.0000E+000
 220.00  0.0000E+000
 220.50  0.0000E+000
 221.00  0.0000E+000
 221.50  0.0000E+000
 222.00  0.0000E+000
 222.50  0.0000E+000
 223.00  0.0000E+000
 223.50  0.0000E+000
 224.00  0.0000E+000
 224.50  0.0000E+000
 225.00  0.0000E+000
 225.50  0.0000E+000
 226.00  0.0000E+000
 226.50  0.0000E+000
 227.00  0.0000E+000
 227.50  0.0000E+000
 228.00  0.0000E+000
 228.50  0.0000E+000
 229.00  0.0000E+000
 229.50  0.0000E+000
 230.00  0.0000E+000
 230.50  0.0000E+000
 231.00  0.0000E+000
 231.50  0.0000E+000
 232.00  0.0000E+000
 232.50  0.0000E+000
 233.00  0.0000E+000
 233.50  0.0000E+000
 234.00  0.0000E+000
 234.50  0.0000E+000
 235.00  0.0000E+000
 235.50  0.0000E+000
 236.00  0.0000E+000
 236.50  0.0000E+000
 237.00  0.0000E+000
 237.50  0.0000E+000
 238.00  0.0000E+000
 238.50  0.0000E+000
 239.00  0.0000E+000
 239.50  0.0000E+000
 240.00  0.0000E+000
 240.50  0.0000E+000
 241.00  0.0000E+000
 241.50  0.0000E+000
 242.00  0.0000E+000
 242.50  0.0000E+000
 243.00  0.0000E+000
 243.50  0.0000E+000
 244.00  0.0000E+000
 244.50  0.0000E+000
 245.00  0.0000E+000
 245.50  0.0000E+000
 246.00  0.0000E+000
 246.50  0.0000E+000
 247.00  0.0000E+000
 247.50  0.0000E+000
 248.00  0.0000E+000
 248.50  0.0000E+000
 249.00  0.0000E+000
 249.50  0.0000E+000
 250.00  0.0000E+000
 250.50  0.0000E+000
 251.00  0.0000E+000
 251.50  0.0000E+000
 252.00  0.0000E+000
 252.50  0.0000E+000
 253.00  0.0000E+000
 253.50  0.0000E+000
 254.00  0.0000E+000
 254.50  0.0000E+000
 255.00  0.0000E+000
 255.50  0.0000E+000
 256.00  0.0000E+000
 256.50  0.0000E+000
 257.00  0.0000E+000
 257.50  0.0000E+000
 258.00  0.0000E+000
 258.50  0.0000E+000
 259.00  0.0000E+000
 259.50  0.0000E+000
 260.00  0.0000E+000
 260.50  0.0000E+000
 261.00  0.0000E+000
 261.50  0.0000E+000
 262.00  0.0000E+000
 262.50  0.0000E+000
 263.00  0.0000E+000
 263.50  0.0000E+000
 264.00  0.0000E+000
 264.50  0.0000E+000
 265.00  0.0000E+000
 265.50  0.0000E+000
 266.00  0.0000E+000
 266.50  0.0000E+000
 267.00  0.0000E+000
 267.50  0.0000E+000
 268.00  0.0000E+000
 268.50  0.0000E+000
 269.00  0.0000E+000
 269.50  0.0000E+000
 270.00  0.0000E+000
 270.50  0.0000E+000
 271.00  0.0000E+000
 271.50  0.0000E+000
 272.00  0.0000E+000
 272.50  0.0000E+000
 273.00  0.0000E+000
 273.50  0.0000E+000
 274.00  0.0000E+000
 274.50  0.0000E+000
 275.00  0.0000E+000
 275.50  0.0000E+000
 276.00  0.0000E+000
 276.50  0.0000E+000
 277.00  0.0000E+000
 277.50  0.0000E+000
 278.00  0.0000E+000
 278.50  0.0000E+000
 279.00  0.0000E+000
 279.50  0.0000E+000
 280.00  0.0000E+000
 280.50  0.0000E+000
 281.00  0.0000E+000
 281.50  0.0000E+000
 282.00  0.0000E+000
 282.50  0.0000E+000
 283.00  0.0000E+000
 283.50  0.0000E+000
 284.00  0.0000E+000
 284.50  0.0000E+000
 285.00  0.0000E+000
 285.50  0.0000E+000
 286.00  0.0000E+000
 286.50  0.0000E+000
 287.00  0.0000E+000
 287.50  0.0000E+000
 288.00  0.0000E+000
 288.50  0.0000E+000
 289.00  0.0000E+000
 289.50  0.0000E+000
 290.00  0.0000E+000
 290.50  0.0000E+000
 291.00  0.0000E+000
 291.50  0.0000E+000
 292.00  0.0000E+000
 292.50  0.0000E+000
 293.00  0.0000E+000
 293.50  0.0000E+000
 294.00  0.0000E+000
 294.50  0.0000E+000
 295.00  0.0000E+000
 295.50  0.0000E+000
 296.00  0.0000E+000
 296.50  0.0000E+000
 297.00  0.0000E+000
 297.50  0.0000E+000
 298.00  0.0000E+000
 298.50  0.0000E+000
 299.00  0.0000E+000
 299.50  0.0000E+000
 300.00  0.0000E+000
 300.50  0.0000E+000
 301.00  0.0000E+000
 301.50  0.0000E+000
 302.00  0.0000E+000
 302.50  0.0000E+000
 303.00  0.0000E+000
 303.50  0.0000E+000
 304.00  0.0000E+000
 304.50  0.0000E+000
 305.00  0.0000E+000
 305.50  0.0000E+000
 306.00  0.0000E+000
 306.50  0.0000E+000
 307.00  0.0000E+000
 307.50  0.0000E+000
 308.00  0.0000E+000
 308.50  0.0000E+000
 309.00  0.0000E+000
 309.50  0.0000E+000
 310.00  0.0000E+000
 310.50  0.0000E+000
 311.00  0.0000E+000
 311.50  0.0000E+000
 312.00  0.0000E+000
 312.50  0.0000E+000
 313.00  0.0000E+000
 313.50  0.0000E+000
 314.00  0.0000E+000
 314.50  0.0000E+000
 315.00  0.0000E+000
 315.50  0.0000E+000
 316.00  0.0000E+000
 316.50  0.0000E+000
 317.00  0.0000E+000
 317.50  0.0000E+000
 318.00  0.0000E+000
 318.50  0.0000E+000
 319.00  0.0000E+000
 319.50  0.0000E+000
 320.00  0.0000E+000
 320.50  0.0000E+000
 321.00  0.0000E+000
 321.50  0.0000E+000
 322.00  0.0000E+000
 322.50  0.0000E+000
 323.00  0.0000E+000
 323.50  0.0000E+000
 324.00  0.0000E+000
 324.50  0.0000E+000
 325.00  0.0000E+000
 325.50  0.0000E+000
 326.00  0.0000E+000
 326.50  0.0000E+000
 327.00  0.0000E+000
 327.50  0.0000E+000
 328.00  0.0000E+000
 328.50  0.0000E+000
 329.00  0.0000E+000
 329.50  0.0000E+000
 330.00  0.0000E+000
 330.50  0.0000E+000
 331.00  0.0000E+000
 331.50  0.0000E+000
 332.00  0.0000E+000
 332.50  0.0000E+000
 333.00  0.0000E+000
 333.50  0.0000E+000
 334.00  0.0000E+000
 334.50  0.0000E+000
 335.00  0.0000E+000
 335.50  0.0000E+000
 336.00  0.0000E+000
 336.50  0.0000E+000
 337.00  0.0000E+000
 337.50  0.0000E+000
 338.00  0.0000E+000
 338.50  0.0000E+000
 339.00  0.0000E+000
 339.50  0.0000E+000
 340.00  0.0000E+000
 340.50  0.0000E+000
 341.00  0.0000E+000
 341.50  0.0000E+000
 342.00  0.0000E+000
 342.50  0.0000E+000
 343.00  0.0000E+000
 343.50  0.0000E+000
 344.00  0.0000E+000
 344.50  0.0000E+000
 345.00  0.0000E+000
 345.50  0.0000E+000
 346.00  0.0000E+000
 346.50  0.0000E+000
 347.00  0.0000E+000
 347.50  0.0000E+000
 348.00  0.0000E+000
 348.50  0.0000E+000
 349.00  0.0000E+000
 349.50  0.0000E+000
 350.00  0.0000E+000
 350.50  0.0000E+000
 351.00  0.0000E+000
 351.50  0.0000E+000
 352.00  0.0000E+000
 352.50  0.0000E+000
 353.00  0.0000E+000
 353.50  0.0000E+000
 354.00  0.0000E+000
 354.50  0.0000E+000
 355.00  0.0000E+000
 355.50  0.0000E+000
 356.00  0.0000E+000
 356.50  0.0000E+000
 357.00  0.0000E+000
 357.50  0.0000E+000
 358.00  0.0000E+000
 358.50  0.0000E+000
 359.00  0.0000E+000
 359.50  1.3423E-008
 360.00  1.7054E-007
 360.50  2.6310E-007
 361.00  2.7057E-007
 361.50  2.6052E-007
 362.00  2.5664E-007
 362.50  2.5788E-007
 363.00  2.7760E-007
 363.50  2.8813E-007
 364.00  2.6917E-007
 364.50  2.3312E-007
 365.00  1.7051E-007
 365.50  1.0126E-007
 366.00  3.4799E-008
 366.50  2.3197E-008
 367.00  2.0338E-008
 367.50  7.0992E-008
 368.00  1.6102E-007
 368.50  2.6878E-007
 369.00  3.8971E-007
 369.50  5.3909E-007
 370.00  6.8094E-007
 370.50  6.9416E-007
 371.00  6.8178E-007
 371.50  6.8719E-007
 372.00  6.0931E-007
 372.50  5.5545E-007
 373.00  5.5555E-007
 373.50  5.4791E-007
 374.00  5.8981E-007
 374.50  5.6520E-007
 375.00  5.5854E-007
 375.50  5.1721E-007
 376.00  4.2016E-007
 376.50  3.5057E-007
 377.00  3.3958E-007
 377.50  3.5235E-007
 378.00  3.8831E-007
 378.50  4.3818E-007
 379.00  4.5692E-007
 379.50  4.6918E-007
 380.00  4.6301E-007
 380.50  4.7609E-007
 381.00  4.6902E-007
 381.50  4.2273E-007
 382.00  3.6436E-007
 382.50  2.5791E-007
 383.00  1.5215E-007
 383.50  1.3387E-007
 384.00  1.5510E-007
 384.50  2.0337E-007
 385.00  2.3889E-007
 385.50  2.6002E-007
 386.00  2.6288E-007
 386.50  2.7279E-007
 387.00  3.0038E-007
 387.50  3.1994E-007
 388.00  3.3624E-007
 388.50  3.5539E-007
 389.00  3.5203E-007
 389.50  3.5391E-007
 390.00  3.8606E-007
 390.50  4.1639E-007
 391.00  3.8520E-007
 391.50  3.8133E-007
 392.00  4.1890E-007
 392.50  4.0185E-007
 393.00  4.0860E-007
 393.50  3.6727E-007
 394.00  3.3040E-007
 394.50  2.7458E-007
 395.00  1.8406E-007
 395.50  2.2510E-007
 396.00  2.5857E-007
 396.50  2.7979E-007
 397.00  3.3581E-007
 397.50  3.4711E-007
 398.00  3.4985E-007
 398.50  3.1977E-007
 399.00  2.6418E-007
 399.50  2.3287E-007
 400.00  1.6803E-007
 400.50  1.1607E-007
 401.00  1.2433E-007
 401.50  1.9219E-007
 402.00  2.3459E-007
 402.50  2.7417E-007
 403.00  2.7896E-007
 403.50  2.5449E-007
 404.00  2.6681E-007
 404.50  2.6960E-007
 405.00  3.2652E-007
 405.50  3.8678E-007
 406.00  4.0513E-007
 406.50  3.9515E-007
 407.00  3.6755E-007
 407.50  3.3171E-007
 408.00  2.5385E-007
 408.50  2.1250E-007
 409.00  1.8426E-007
 409.50  2.0427E-007
 410.00  2.4148E-007
 410.50  2.9655E-007
 411.00  3.5258E-007
 411.50  3.9910E-007
 412.00  4.2236E-007
 412.50  4.3783E-007
 413.00  4.0029E-007
 413.50  3.7156E-007
 414.00  3.4168E-007
 414.50  3.2291E-007
 415.00  3.6712E-007
 415.50  4.3938E-007
 416.00  4.7471E-007
 416.50  4.8714E-007
 417.00  4.7965E-007
 417.50  4.3609E-007
 418.00  4.0891E-007
 418.50  4.5777E-007
 419.00  4.9583E-007
 419.50  5.3954E-007
 420.00  6.1506E-007
 420.50  6.7095E-007
 421.00  6.6188E-007
 421.50  6.2640E-007
 422.00  6.0838E-007
 422.50  5.0925E-007
 423.00  4.5170E-007
 423.50  4.3444E-007
 424.00  4.4818E-007
 424.50  4.9891E-007
 425.00  5.4036E-007
 425.50  5.2371E-007
 426.00  4.5728E-007
 426.50  3.9668E-007
 427.00  2.9401E-007
 427.50  3.0711E-007
 428.00  3.1907E-007
 428.50  3.2487E-007
 429.00  3.2431E-007
 429.50  3.0320E-007
 430.00  3.0009E-007
 430.50  3.4564E-007
 431.00  3.8106E-007
 431.50  4.1133E-007
 432.00  4.7212E-007
 432.50  4.8121E-007
 433.00  4.7136E-007
 433.50  4.6282E-007
 434.00  4.0798E-007
 434.50  3.8725E-007
 435.00  3.6818E-007
 435.50  3.1511E-007
 436.00  2.3874E-007
 436.50  2.3998E-007
 437.00  2.2909E-007
 437.50  3.3124E-007
 438.00  4.1520E-007
 438.50  4.3990E-007
 439.00  3.9013E-007
 439.50  2.6983E-007
 440.00  1.5611E-007
 440.50  8.6045E-008
 441.00  1.1997E-007
 441.50  2.0962E-007
 442.00  2.7442E-007
 442.50  3.5201E-007
 443.00  4.0345E-007
 443.50  4.0662E-007
 444.00  3.6460E-007
 444.50  3.1839E-007
 445.00  2.9511E-007
 445.50  2.9096E-007
 446.00  3.3448E-007
 446.50  3.8512E-007
 447.00  3.9325E-007
 447.50  3.7845E-007
 448.00  3.1490E-007
 448.50  2.3075E-007
 449.00  2.0831E-007
 449.50  1.8335E-007
 450.00  1.9087E-007
 450.50  2.1110E-007
 451.00  2.6067E-007
 451.50  2.6902E-007
 452.00  2.7430E-007
 452.50  2.7872E-007
 453.00  2.7977E-007
 453.50  2.7605E-007
 454.00  3.1213E-007
 454.50  3.1085E-007
 455.00  2.9591E-007
 455.50  2.5988E-007
 456.00  2.1881E-007
 456.50  1.7084E-007
 457.00  1.5501E-007
 457.50  1.5689E-007
 458.00  1.6722E-007
 458.50  1.9900E-007
 459.00  2.3505E-007
 459.50  2.5752E-007
 460.00  2.2362E-007
 460.50  1.8592E-007
 461.00  1.1607E-007
 461.50  7.5517E-008
 462.00  6.7980E-008
 462.50  8.6978E-008
 463.00  1.1808E-007
 463.50  1.3673E-007
 464.00  1.3555E-007
 464.50  1.3255E-007
 465.00  1.4814E-007
 465.50  1.7482E-007
 466.00  1.9383E-007
 466.50  2.1004E-007
 467.00  2.1176E-007
 467.50  1.9411E-007
 468.00  1.7055E-007
 468.50  1.6631E-007
 469.00  1.7816E-007
 469.50  1.8923E-007
 470.00  2.2287E-007
 470.50  2.6367E-007
 471.00  2.8184E-007
 471.50  2.6956E-007
 472.00  2.6723E-007
 472.50  2.5573E-007
 473.00  2.4041E-007
 473.50  2.8057E-007
 474.00  3.1267E-007
 474.50  3.4486E-007
 475.00  3.7084E-007
 475.50  3.6882E-007
 476.00  3.5525E-007
 476.50  3.3429E-007
 477.00  3.0585E-007
 477.50  2.8356E-007
 478.00  2.7587E-007
 478.50  2.8809E-007
 479.00  2.6753E-007
 479.50  2.8206E-007
 480.00  3.0552E-007
 480.50  3.1236E-007
 481.00  3.2077E-007
 481.50  3.4645E-007
 482.00  3.4296E-007
 482.50  3.2281E-007
 483.00  3.0526E-007
 483.50  2.8536E-007
 484.00  2.5752E-007
 484.50  2.6535E-007
 485.00  2.9446E-007
 485.50  3.1866E-007
 486.00  3.5610E-007
 486.50  3.9126E-007
 487.00  4.0685E-007
 487.50  4.0536E-007
 488.00  4.0669E-007
 488.50  3.9694E-007
 489.00  3.8986E-007
 489.50  3.9223E-007
 490.00  4.2663E-007
 490.50  4.2773E-007
 491.00  4.1138E-007
 491.50  3.7128E-007
 492.00  2.9007E-007
 492.50  2.0953E-007
 493.00  1.5667E-007
 493.50  1.1676E-007
 494.00  1.4191E-007
 494.50  1.6187E-007
 495.00  1.9159E-007
 495.50  2.1650E-007
 496.00  2.4520E-007
 496.50  2.7696E-007
 497.00  3.0296E-007
 497.50  3.4275E-007
 498.00  3.5971E-007
 498.50  3.4066E-007
 499.00  3.3498E-007
 499.50  3.4054E-007
 500.00  3.3138E-007
 500.50  3.2977E-007
 501.00  3.3748E-007
 501.50  3.5698E-007
 502.00  3.7373E-007
 502.50  3.7027E-007
 503.00  3.8688E-007
 503.50  3.7918E-007
 504.00  3.5120E-007
 504.50  3.0643E-007
 505.00  3.2986E-007
 505.50  3.1576E-007
 506.00  3.2279E-007
 506.50  3.7149E-007
 507.00  4.2944E-007
 507.50  4.8205E-007
 508.00  5.5901E-007
 508.50  6.2259E-007
 509.00  6.5208E-007
 509.50  6.6048E-007
 510.00  6.7191E-007
 510.50  6.0548E-007
 511.00  5.5095E-007
 511.50  5.2327E-007
 512.00  5.1313E-007
 512.50  5.4236E-007
 513.00  5.6908E-007
 513.50  6.1337E-007
 514.00  6.3666E-007
 514.50  6.2345E-007
 515.00  6.3482E-007
 515.50  6.7603E-007
 516.00  6.8622E-007
 516.50  7.1851E-007
 517.00  7.5539E-007
 517.50  7.6594E-007
 518.00  7.5582E-007
 518.50  7.2732E-007
 519.00  7.0179E-007
 519.50  6.7897E-007
 520.00  7.1759E-007
 520.50  7.1871E-007
 521.00  7.0256E-007
 521.50  6.8510E-007
 522.00  6.5409E-007
 522.50  6.1580E-007
 523.00  5.9768E-007
 523.50  5.9304E-007
 524.00  5.9495E-007
 524.50  5.8986E-007
 525.00  6.5470E-007
 525.50  7.0699E-007
 526.00  7.9956E-007
 526.50  8.5650E-007
 527.00  9.3391E-007
 527.50  9.8224E-007
 528.00  9.7343E-007
 528.50  9.8883E-007
 529.00  1.0013E-006
 529.50  9.5647E-007
 530.00  9.8634E-007
 530.50  9.9980E-007
 531.00  1.0230E-006
 531.50  1.0513E-006
 532.00  1.0734E-006
 532.50  1.0809E-006
 533.00  1.1008E-006
 533.50  1.1243E-006
 534.00  1.1537E-006
 534.50  1.1849E-006
 535.00  1.2043E-006
 535.50  1.1761E-006
 536.00  1.1506E-006
 536.50  1.1159E-006
 537.00  1.1332E-006
 537.50  1.1675E-006
 538.00  1.2025E-006
 538.50  1.2062E-006
 539.00  1.2170E-006
 539.50  1.2038E-006
 540.00  1.1535E-006
 540.50  1.1807E-006
 541.00  1.2044E-006
 541.50  1.2755E-006
 542.00  1.3255E-006
 542.50  1.3579E-006
 543.00  1.4003E-006
 543.50  1.4419E-006
 544.00  1.4523E-006
 544.50  1.4877E-006
 545.00  1.4813E-006
 545.50  1.4013E-006
 546.00  1.3091E-006
 546.50  1.2254E-006
 547.00  1.1298E-006
 547.50  1.1021E-006
 548.00  1.1217E-006
 548.50  1.1697E-006
 549.00  1.2596E-006
 549.50  1.3362E-006
 550.00  1.3926E-006
 550.50  1.4636E-006
 551.00  1.4545E-006
 551.50  1.4037E-006
 552.00  1.4554E-006
 552.50  1.4670E-006
 553.00  1.4751E-006
 553.50  1.4731E-006
 554.00  1.4725E-006
 554.50  1.4653E-006
 555.00  1.4808E-006
 555.50  1.5127E-006
 556.00  1.5488E-006
 556.50  1.5511E-006
 557.00  1.4884E-006
 557.50  1.4059E-006
 558.00  1.3820E-006
 558.50  1.3375E-006
 559.00  1.3325E-006
 559.50  1.3652E-006
 560.00  1.4303E-006
 560.50  1.4979E-006
 561.00  1.5489E-006
 561.50  1.6009E-006
 562.00  1.6599E-006
 562.50  1.7057E-006
 563.00  1.7823E-006
 563.50  1.8820E-006
 564.00  2.0024E-006
 564.50  2.1042E-006
 565.00  2.1682E-006
 565.50  2.2406E-006
 566.00  2.2776E-006
 566.50  2.2915E-006
 567.00  2.3883E-006
 567.50  2.5808E-006
 568.00  2.7232E-006
 568.50  2.7889E-006
 569.00  2.7693E-006
 569.50  2.6746E-006
 570.00  2.4869E-006
 570.50  2.4488E-006
 571.00  2.5487E-006
 571.50  2.6930E-006
 572.00  2.7965E-006
 572.50  2.8855E-006
 573.00  2.9323E-006
 573.50  2.8947E-006
 574.00  2.9207E-006
 574.50  2.9933E-006
 575.00  3.0267E-006
 575.50  3.0744E-006
 576.00  3.1634E-006
 576.50  3.2114E-006
 577.00  3.3401E-006
 577.50  3.5981E-006
 578.00  3.9244E-006
 578.50  4.1945E-006
 579.00  4.3562E-006
 579.50  4.4281E-006
 580.00  4.3554E-006
 580.50  4.3091E-006
 581.00  4.4394E-006
 581.50  4.5941E-006
 582.00  4.7747E-006
 582.50  5.0012E-006
 583.00  5.2190E-006
 583.50  5.4588E-006
 584.00  5.6752E-006
 584.50  5.8095E-006
 585.00  5.9013E-006
 585.50  5.9412E-006
 586.00  5.9848E-006
 586.50  6.0724E-006
 587.00  6.2578E-006
 587.50  6.4865E-006
 588.00  6.7542E-006
 588.50  7.0534E-006
 589.00  7.3826E-006
 589.50  7.7403E-006
 590.00  8.0546E-006
 590.50  8.3412E-006
 591.00  8.6632E-006
 591.50  9.0045E-006
 592.00  9.2861E-006
 592.50  9.7099E-006
 593.00  1.0043E-005
 593.50  1.0436E-005
 594.00  1.0763E-005
 594.50  1.1105E-005
 595.00  1.1433E-005
 595.50  1.1762E-005
 596.00  1.2073E-005
 596.50  1.2461E-005
 597.00  1.2926E-005
 597.50  1.3488E-005
 598.00  1.4191E-005
 598.50  1.4957E-005
 599.00  1.5715E-005
 599.50  1.6456E-005
 600.00  1.7083E-005
 600.50  1.7688E-005
 601.00  1.8338E-005
 601.50  1.9002E-005
 602.00  1.9858E-005
 602.50  2.0877E-005
 603.00  2.1917E-005
 603.50  2.3060E-005
 604.00  2.4251E-005
 604.50  2.5460E-005
 605.00  2.6721E-005
 605.50  2.8155E-005
 606.00  2.9647E-005
 606.50  3.1220E-005
 607.00  3.2920E-005
 607.50  3.4624E-005
 608.00  3.6299E-005
 608.50  3.7988E-005
 609.00  3.9732E-005
 609.50  4.1524E-005
 610.00  4.3384E-005
 610.50  4.5417E-005
 611.00  4.7660E-005
 611.50  4.9899E-005
 612.00  5.2324E-005
 612.50  5.4868E-005
 613.00  5.7522E-005
 613.50  6.0450E-005
 614.00  6.3621E-005
 614.50  6.7031E-005
 615.00  7.0783E-005
 615.50  7.4665E-005
 616.00  7.8557E-005
 616.50  8.2686E-005
 617.00  8.6670E-005
 617.50  9.0667E-005
 618.00  9.4734E-005
 618.50  9.9115E-005
 619.00  1.0385E-004
 619.50  1.0899E-004
 620.00  1.1453E-004
 620.50  1.2043E-004
 621.00  1.2651E-004
 621.50  1.3291E-004
 622.00  1.3979E-004
 622.50  1.4698E-004
 623.00  1.5456E-004
 623.50  1.6265E-004
 624.00  1.7110E-004
 624.50  1.7987E-004
 625.00  1.8906E-004
 625.50  1.9850E-004
 626.00  2.0813E-004
 626.50  2.1808E-004
 627.00  2.2838E-004
 627.50  2.3920E-004
 628.00  2.5078E-004
 628.50  2.6316E-004
 629.00  2.7644E-004
 629.50  2.9070E-004
 630.00  3.0581E-004
 630.50  3.2177E-004
 631.00  3.3851E-004
 631.50  3.5579E-004
 632.00  3.7352E-004
 632.50  3.9187E-004
 633.00  4.1090E-004
 633.50  4.3095E-004
 634.00  4.5216E-004
 634.50  4.7454E-004
 635.00  4.9828E-004
 635.50  5.2323E-004
 636.00  5.4933E-004
 636.50  5.7687E-004
 637.00  6.0592E-004
 637.50  6.3651E-004
 638.00  6.6852E-004
 638.50  7.0182E-004
 639.00  7.3612E-004
 639.50  7.7151E-004
 640.00  8.0872E-004
 640.50  8.4853E-004
 641.00  8.9139E-004
 641.50  9.3743E-004
 642.00  9.8652E-004
 642.50  1.0382E-003
 643.00  1.0918E-003
 643.50  1.1468E-003
 644.00  1.2030E-003
 644.50  1.2596E-003
 645.00  1.3177E-003
 645.50  1.3775E-003
 646.00  1.4400E-003
 646.50  1.5057E-003
 647.00  1.5743E-003
 647.50  1.6446E-003
 648.00  1.7156E-003
 648.50  1.7867E-003
 649.00  1.8575E-003
 649.50  1.9280E-003
 650.00  1.9990E-003
 650.50  2.0690E-003
 651.00  2.1377E-003
 651.50  2.2041E-003
 652.00  2.2672E-003
 652.50  2.3262E-003
 653.00  2.3804E-003
 653.50  2.4289E-003
 654.00  2.4707E-003
 654.50  2.5050E-003
 655.00  2.5319E-003
 655.50  2.5512E-003
 656.00  2.5625E-003
 656.50  2.5656E-003
 657.00  2.5594E-003
 657.50  2.5434E-003
 658.00  2.5195E-003
 658.50  2.4889E-003
 659.00  2.4524E-003
 659.50  2.4103E-003
 660.00  2.3627E-003
 660.50  2.3101E-003
 661.00  2.2533E-003
 661.50  2.1932E-003
 662.00  2.1306E-003
 662.50  2.0654E-003
 663.00  1.9974E-003
 663.50  1.9268E-003
 664.00  1.8544E-003
 664.50  1.7805E-003
 665.00  1.7060E-003
 665.50  1.6319E-003
 666.00  1.5588E-003
 666.50  1.4875E-003
 667.00  1.4182E-003
 667.50  1.3507E-003
 668.00  1.2851E-003
 668.50  1.2212E-003
 669.00  1.1592E-003
 669.50  1.0998E-003
 670.00  1.0436E-003
 670.50  9.9050E-004
 671.00  9.4086E-004
 671.50  8.9430E-004
 672.00  8.5058E-004
 672.50  8.0899E-004
 673.00  7.6924E-004
 673.50  7.3096E-004
 674.00  6.9367E-004
 674.50  6.5730E-004
 675.00  6.2202E-004
 675.50  5.8806E-004
 676.00  5.5576E-004
 676.50  5.2543E-004
 677.00  4.9657E-004
 677.50  4.6912E-004
 678.00  4.4288E-004
 678.50  4.1817E-004
 679.00  3.9434E-004
 679.50  3.7208E-004
 680.00  3.5159E-004
 680.50  3.3251E-004
 681.00  3.1464E-004
 681.50  2.9827E-004
 682.00  2.8286E-004
 682.50  2.6815E-004
 683.00  2.5416E-004
 683.50  2.4080E-004
 684.00  2.2815E-004
 684.50  2.1629E-004
 685.00  2.0502E-004
 685.50  1.9482E-004
 686.00  1.8525E-004
 686.50  1.7620E-004
 687.00  1.6772E-004
 687.50  1.5984E-004
 688.00  1.5230E-004
 688.50  1.4511E-004
 689.00  1.3835E-004
 689.50  1.3192E-004
 690.00  1.2578E-004
 690.50  1.2026E-004
 691.00  1.1528E-004
 691.50  1.1084E-004
 692.00  1.0707E-004
 692.50  1.0327E-004
 693.00  9.9529E-005
 693.50  9.5943E-005
 694.00  9.2386E-005
 694.50  8.8906E-005
 695.00  8.5760E-005
 695.50  8.2842E-005
 696.00  8.0174E-005
 696.50  7.7708E-005
 697.00  7.5377E-005
 697.50  7.3388E-005
 698.00  7.1608E-005
 698.50  6.9787E-005
 699.00  6.8135E-005
 699.50  6.6670E-005
 700.00  6.5359E-005
 700.50  6.3793E-005
 701.00  6.2127E-005
 701.50  6.0403E-005
 702.00  5.8705E-005
 702.50  5.6927E-005
 703.00  5.5448E-005
 703.50  5.4037E-005
 704.00  5.2627E-005
 704.50  5.1259E-005
 705.00  4.9920E-005
 705.50  4.8799E-005
 706.00  4.7977E-005
 706.50  4.7536E-005
 707.00  4.7044E-005
 707.50  4.6687E-005
 708.00  4.6214E-005
 708.50  4.5743E-005
 709.00  4.5198E-005
 709.50  4.4816E-005
 710.00  4.4434E-005
 710.50  4.4162E-005
 711.00  4.3809E-005
 711.50  4.3299E-005
 712.00  4.2826E-005
 712.50  4.2240E-005
 713.00  4.1478E-005
 713.50  4.0859E-005
 714.00  4.0437E-005
 714.50  3.9913E-005
 715.00  3.9599E-005
 715.50  3.9126E-005
 716.00  3.8580E-005
 716.50  3.8007E-005
 717.00  3.7663E-005
 717.50  3.7428E-005
 718.00  3.7158E-005
 718.50  3.6762E-005
 719.00  3.6272E-005
 719.50  3.5591E-005
 720.00  3.5135E-005
 720.50  3.4775E-005
 721.00  3.4468E-005
 721.50  3.4372E-005
 722.00  3.4488E-005
 722.50  3.4368E-005
 723.00  3.4302E-005
 723.50  3.4111E-005
 724.00  3.3884E-005
 724.50  3.3272E-005
 725.00  3.2656E-005
 725.50  3.2027E-005
 726.00  3.1337E-005
 726.50  3.0741E-005
 727.00  3.0455E-005
 727.50  3.0452E-005
 728.00  3.0420E-005
 728.50  3.0440E-005
 729.00  3.0730E-005
 729.50  3.0716E-005
 730.00  3.0415E-005
 730.50  3.0144E-005
 731.00  2.9614E-005
 731.50  2.8402E-005
 732.00  2.7221E-005
 732.50  2.6387E-005
 733.00  2.5802E-005
 733.50  2.5502E-005
 734.00  2.5521E-005
 734.50  2.5802E-005
 735.00  2.6154E-005
 735.50  2.6513E-005
 736.00  2.6737E-005
 736.50  2.6831E-005
 737.00  2.6945E-005
 737.50  2.6567E-005
 738.00  2.6091E-005
 738.50  2.5443E-005
 739.00  2.4990E-005
 739.50  2.4197E-005
 740.00  2.4013E-005
 740.50  2.3631E-005
 741.00  2.3548E-005
 741.50  2.3407E-005
 742.00  2.3210E-005
 742.50  2.2930E-005
 743.00  2.2838E-005
 743.50  2.3080E-005
 744.00  2.3646E-005
 744.50  2.4156E-005
 745.00  2.4901E-005
 745.50  2.5538E-005
 746.00  2.5439E-005
 746.50  2.4927E-005
 747.00  2.4381E-005
 747.50  2.3427E-005
 748.00  2.2371E-005
 748.50  2.1431E-005
 749.00  2.0985E-005
 749.50  2.0751E-005
 750.00  2.0597E-005
 750.50  2.0900E-005
 751.00  2.1451E-005
 751.50  2.1858E-005
 752.00  2.1889E-005
 752.50  2.1601E-005
 753.00  2.1313E-005
 753.50  2.0777E-005
 754.00  2.0053E-005
 754.50  1.9613E-005
 755.00  1.9208E-005
 755.50  1.8426E-005
 756.00  1.8156E-005
 756.50  1.7748E-005
 757.00  1.7340E-005
 757.50  1.6851E-005
 758.00  1.6209E-005
 758.50  1.5370E-005
 759.00  1.4726E-005
 759.50  1.4065E-005
 760.00  1.3656E-005
 760.50  1.3383E-005
 761.00  1.3371E-005
 761.50  1.3497E-005
 762.00  1.3623E-005
 762.50  1.3697E-005
 763.00  1.3794E-005
 763.50  1.3791E-005
 764.00  1.3671E-005
 764.50  1.3493E-005
 765.00  1.3217E-005
 765.50  1.2903E-005
 766.00  1.2835E-005
 766.50  1.2810E-005
 767.00  1.2685E-005
 767.50  1.2805E-005
 768.00  1.2908E-005
 768.50  1.3060E-005
 769.00  1.3606E-005
 769.50  1.4405E-005
 770.00  1.4753E-005
 770.50  1.4878E-005
 771.00  1.5066E-005
 771.50  1.5210E-005
 772.00  1.5412E-005
 772.50  1.6372E-005
 773.00  1.6949E-005
 773.50  1.7189E-005
 774.00  1.7175E-005
 774.50  1.6967E-005
 775.00  1.6595E-005
 775.50  1.6454E-005
 776.00  1.6395E-005
 776.50  1.6124E-005
 777.00  1.5870E-005
 777.50  1.5716E-005
 778.00  1.5607E-005
 778.50  1.5372E-005
 779.00  1.4990E-005
 779.50  1.4417E-005
 780.00  1.3701E-005
 780.50  1.2862E-005
 781.00  1.2344E-005
 781.50  1.1725E-005
 782.00  1.1710E-005
 782.50  1.1526E-005
 783.00  1.1410E-005
 783.50  1.1801E-005
 784.00  1.2279E-005
 784.50  1.2433E-005
 785.00  1.2977E-005
 785.50  1.3077E-005
 786.00  1.2930E-005
 786.50  1.2928E-005
 787.00  1.2625E-005
 787.50  1.2267E-005
 788.00  1.2179E-005
 788.50  1.2063E-005
 789.00  1.1779E-005
 789.50  1.1597E-005
 790.00  1.1597E-005
 790.50  1.1571E-005
 791.00  1.1402E-005
 791.50  1.1267E-005
 792.00  1.1141E-005
 792.50  1.1004E-005
 793.00  1.0829E-005
 793.50  1.0850E-005
 794.00  1.0519E-005
 794.50  1.0282E-005
 795.00  9.9583E-006
 795.50  9.7434E-006
 796.00  9.5054E-006
 796.50  9.3378E-006
 797.00  9.0404E-006
 797.50  8.5830E-006
 798.00  8.2780E-006
 798.50  8.4318E-006
 799.00  8.8062E-006
 799.50  8.9544E-006
 800.00  9.5196E-006
 800.50  9.9791E-006
 801.00  1.0351E-005
 801.50  1.0745E-005
 802.00  1.0948E-005
 802.50  1.0762E-005
 803.00  1.0328E-005
 803.50  9.6816E-006
 804.00  9.1811E-006
 804.50  9.0167E-006
 805.00  8.8409E-006
 805.50  8.7908E-006
 806.00  8.7165E-006
 806.50  8.7727E-006
 807.00  9.0306E-006
 807.50  9.3447E-006
 808.00  9.8720E-006
 808.50  1.0150E-005
 809.00  1.0376E-005
 809.50  1.0845E-005
 810.00  1.0938E-005
 810.50  1.0826E-005
 811.00  1.1017E-005
 811.50  1.0729E-005
 812.00  1.0561E-005
 812.50  1.0637E-005
 813.00  1.0681E-005
 813.50  1.0801E-005
 814.00  1.0572E-005
 814.50  1.0303E-005
 815.00  1.0338E-005
 815.50  1.0261E-005
 816.00  1.0318E-005
 816.50  1.0568E-005
 817.00  1.0687E-005
 817.50  1.0699E-005
 818.00  1.0627E-005
 818.50  1.0561E-005
 819.00  1.0218E-005
 819.50  9.4914E-006
 820.00  8.6020E-006
 820.50  7.7668E-006
 821.00  7.0231E-006
 821.50  6.7030E-006
 822.00  6.3253E-006
 822.50  6.2924E-006
 823.00  7.0654E-006
 823.50  8.1108E-006
 824.00  8.9911E-006
 824.50  9.9768E-006
 825.00  9.9852E-006
 825.50  9.4094E-006
 826.00  8.9049E-006
 826.50  8.5272E-006
 827.00  8.2951E-006
 827.50  8.2575E-006
 828.00  8.0311E-006
 828.50  7.7989E-006
 829.00  7.5173E-006
 829.50  7.5023E-006
 830.00  7.8351E-006
 830.50  7.9681E-006
 831.00  8.1984E-006
 831.50  8.7158E-006
 832.00  8.7695E-006
 832.50  8.6943E-006
 833.00  8.7864E-006
 833.50  8.5192E-006
 834.00  8.1017E-006
 834.50  7.9047E-006
 835.00  8.0815E-006
 835.50  8.1148E-006
 836.00  8.0001E-006
 836.50  8.2822E-006
 837.00  8.7010E-006
 837.50  8.7707E-006
 838.00  8.8016E-006
 838.50  8.4860E-006
 839.00  7.7181E-006
 839.50  6.8789E-006
 840.00  6.2284E-006
 840.50  5.4988E-006
 841.00  5.2543E-006
 841.50  4.8349E-006
 842.00  4.5083E-006
 842.50  4.2147E-006
 843.00  4.0825E-006
 843.50  4.6088E-006
 844.00  5.6800E-006
 844.50  6.7682E-006
 845.00  7.6695E-006
 845.50  8.2928E-006
 846.00  8.1188E-006
 846.50  7.8330E-006
 847.00  7.4453E-006
 847.50  7.1849E-006
 848.00  6.8192E-006
 848.50  6.8097E-006
 849.00  7.1899E-006
 849.50  7.3394E-006
 850.00  7.8643E-006
 850.50  8.5347E-006
 851.00  8.6512E-006
 851.50  8.1653E-006
 852.00  8.0525E-006
 852.50  7.3797E-006
 853.00  7.1631E-006
 853.50  6.8281E-006
 854.00  6.5398E-006
 854.50  5.6102E-006
 855.00  4.8935E-006
 855.50  4.2502E-006
 856.00  4.1318E-006
 856.50  4.4379E-006
 857.00  4.8143E-006
 857.50  5.1087E-006
 858.00  5.5066E-006
 858.50  5.4933E-006
 859.00  5.0875E-006
 859.50  4.7587E-006
 860.00  4.2414E-006
 860.50  3.8112E-006
 861.00  3.8696E-006
 861.50  4.1218E-006
 862.00  4.6327E-006
 862.50  5.2374E-006
 863.00  5.9573E-006
 863.50  6.1181E-006
 864.00  6.4030E-006
 864.50  7.0978E-006
 865.00  7.3251E-006
 865.50  6.8538E-006
 866.00  7.1954E-006
 866.50  7.7144E-006
 867.00  7.9322E-006
 867.50  7.8759E-006
 868.00  7.5963E-006
 868.50  7.5286E-006
 869.00  7.0035E-006
 869.50  7.2740E-006
 870.00  8.4971E-006
 870.50  9.7113E-006
 871.00  1.0784E-005
 871.50  1.2144E-005
 872.00  1.3408E-005
 872.50  1.5507E-005
 873.00  1.8518E-005
 873.50  2.0661E-005
 874.00  2.1194E-005
 874.50  2.1023E-005
 875.00  1.9844E-005
 875.50  1.6605E-005
 876.00  1.4598E-005
 876.50  1.3898E-005
 877.00  1.3185E-005
 877.50  1.2051E-005
 878.00  1.3691E-005
 878.50  1.4809E-005
 879.00  1.5459E-005
 879.50  1.4990E-005
 880.00  1.4048E-005
 880.50  1.2461E-005
 881.00  1.1121E-005
 881.50  9.8056E-006
 882.00  1.0246E-005
 882.50  1.2060E-005
 883.00  1.3626E-005
 883.50  1.4197E-005
 884.00  1.4783E-005
 884.50  1.4635E-005
 885.00  1.2821E-005
 885.50  1.0929E-005
 886.00  9.8985E-006
 886.50  9.0491E-006
 887.00  9.3610E-006
 887.50  1.0881E-005
 888.00  1.2118E-005
 888.50  1.2960E-005
 889.00  1.2944E-005
 889.50  1.1397E-005
 890.00  9.0497E-006
 890.50  7.5976E-006
 891.00  6.0138E-006
 891.50  5.0012E-006
 892.00  4.0334E-006
 892.50  3.3638E-006
 893.00  3.1332E-006
 893.50  2.6794E-006
 894.00  2.3466E-006
 894.50  2.3940E-006
 895.00  2.1972E-006
 895.50  2.0957E-006
 896.00  2.0476E-006
 896.50  1.3385E-006
 897.00  7.7636E-007
 897.50  5.7916E-007
 898.00  5.3876E-007
 898.50  1.4319E-006
 899.00  2.1323E-006
 899.50  3.1132E-006
 900.00  4.3540E-006
 900.50  5.4077E-006
 901.00  5.3677E-006
 901.50  6.4861E-006
 902.00  7.1737E-006
 902.50  7.0509E-006
 903.00  7.2355E-006
 903.50  8.5617E-006
 904.00  8.7126E-006
 904.50  9.1159E-006
 905.00  9.5173E-006
 905.50  9.3464E-006
 906.00  8.7866E-006
 906.50  8.3886E-006
 907.00  7.8576E-006
 907.50  7.8355E-006
 908.00  7.7382E-006
 908.50  7.9045E-006
 909.00  8.3331E-006
 909.50  8.6363E-006
 910.00  8.7208E-006
 910.50  8.8460E-006
 911.00  9.7241E-006
 911.50  1.0737E-005
 912.00  1.1554E-005
 912.50  1.2085E-005
 913.00  1.2849E-005
 913.50  1.2729E-005
 914.00  1.1579E-005
 914.50  1.0227E-005
 915.00  9.5738E-006
 915.50  8.6765E-006
 916.00  7.8197E-006
 916.50  8.6136E-006
 917.00  8.7910E-006
 917.50  8.5257E-006
 918.00  7.7445E-006
 918.50  7.5105E-006
 919.00  6.6277E-006
 919.50  6.4238E-006
 920.00  6.1629E-006
 920.50  6.0691E-006
 921.00  6.0717E-006
 921.50  6.5576E-006
 922.00  7.8897E-006
 922.50  1.0057E-005
 923.00  1.2025E-005
 923.50  1.2955E-005
 924.00  1.2631E-005
 924.50  1.1607E-005
 925.00  9.9476E-006
 925.50  7.7854E-006
 926.00  6.7467E-006
 926.50  6.4028E-006
 927.00  5.4114E-006
 927.50  4.6275E-006
 928.00  4.5367E-006
 928.50  5.5057E-006
 929.00  5.8989E-006
 929.50  7.3704E-006
 930.00  9.1211E-006
 930.50  1.1312E-005
 931.00  1.0809E-005
 931.50  1.1458E-005
 932.00  1.1447E-005
 932.50  1.0751E-005
 933.00  9.4946E-006
 933.50  1.0921E-005
 934.00  1.1266E-005
 934.50  1.2214E-005
 935.00  1.2655E-005
 935.50  1.2980E-005
 936.00  1.2144E-005
 936.50  1.1469E-005
 937.00  9.8090E-006
 937.50  8.7939E-006
 938.00  7.4011E-006
 938.50  6.3531E-006
 939.00  5.9310E-006
 939.50  5.6712E-006
 940.00  5.9396E-006
 940.50  7.4748E-006
 941.00  7.9132E-006
 941.50  7.6884E-006
 942.00  7.5659E-006
 942.50  6.9613E-006
 943.00  4.7897E-006
 943.50  3.7387E-006
 944.00  4.2040E-006
 944.50  4.4354E-006
 945.00  3.8180E-006
 945.50  3.7694E-006
 946.00  4.5190E-006
 946.50  3.6533E-006
 947.00  4.3524E-006
 947.50  5.8216E-006
 948.00  7.9206E-006
 948.50  9.1407E-006
 949.00  1.0983E-005
 949.50  1.2442E-005
 950.00  1.4967E-005
 950.50  1.6893E-005
 951.00  1.8708E-005
 951.50  1.9682E-005
 952.00  1.8483E-005
 952.50  1.6123E-005
 953.00  1.3986E-005
 953.50  1.1789E-005
 954.00  1.0228E-005
 954.50  1.0332E-005
 955.00  1.1966E-005
 955.50  1.4759E-005
 956.00  1.6890E-005
 956.50  1.8712E-005
 957.00  2.0621E-005
 957.50  2.0393E-005
 958.00  1.9670E-005
 958.50  1.9755E-005
 959.00  1.8234E-005
 959.50  1.4758E-005
 960.00  1.0555E-005
 960.50  5.3506E-006
 961.00  1.1710E-006
 961.50  1.9628E-006
 962.00  6.2048E-006
 962.50  9.0919E-006
 963.00  1.4947E-005
 963.50  2.0977E-005
 964.00  2.0957E-005
 964.50  1.8374E-005
 965.00  1.8698E-005
 965.50  1.9222E-005
 966.00  1.6034E-005
 966.50  1.4609E-005
 967.00  1.4398E-005
 967.50  1.3805E-005
 968.00  1.1452E-005
 968.50  1.2452E-005
 969.00  1.3581E-005
 969.50  1.4079E-005
 970.00  1.5707E-005
 970.50  1.9073E-005
 971.00  2.2109E-005
 971.50  2.6284E-005
 972.00  3.0005E-005
 972.50  3.0472E-005
 973.00  3.2605E-005
 973.50  3.6386E-005
 974.00  3.7306E-005
 974.50  3.8635E-005
 975.00  4.0962E-005
 975.50  4.0344E-005
 976.00  3.9181E-005
 976.50  4.1049E-005
 977.00  4.6241E-005
 977.50  4.8730E-005
 978.00  4.6861E-005
 978.50  4.5819E-005
 979.00  4.2958E-005
 979.50  3.4042E-005
 980.00  3.0950E-005
 980.50  2.9653E-005
 981.00  2.6188E-005
 981.50  2.2463E-005
 982.00  2.0221E-005
 982.50  1.2992E-005
 983.00  8.0127E-006
 983.50  7.1278E-006
 984.00  8.6450E-006
 984.50  1.5332E-005
 985.00  2.3377E-005
 985.50  2.8295E-005
 986.00  3.1828E-005
 986.50  3.4878E-005
 987.00  3.6765E-005
 987.50  3.6006E-005
 988.00  3.3665E-005
 988.50  3.0305E-005
 989.00  2.4457E-005
 989.50  1.6323E-005
 990.00  1.1431E-005
 990.50  9.3594E-006
 991.00  7.7495E-006
 991.50  4.4866E-006
 992.00  3.3437E-006
 992.50  4.0471E-006
 993.00  9.1198E-006
 993.50  1.9281E-005
 994.00  3.4095E-005
 994.50  5.6500E-005
 995.00  7.3381E-005
 995.50  7.8835E-005
 996.00  8.3322E-005
 996.50  8.2884E-005
 997.00  6.5802E-005
 997.50  5.3353E-005
 998.00  3.9610E-005
 998.50  2.2780E-005
 999.00  6.2228E-006
 999.50  4.2297E-007
1000.00  0.0000E+000
1000.50  0.0000E+000
1001.00  0.0000E+000
1001.50  0.0000E+000
1002.00  0.0000E+000
1002.50  0.0000E+000
1003.00  0.0000E+000
1003.50  0.0000E+000
1004.00  0.0000E+000
1004.50  0.0000E+000
1005.00  0.0000E+000
1005.50  0.0000E+000
1006.00  0.0000E+000
1006.50  0.0000E+000
1007.00  0.0000E+000
1007.50  0.0000E+000
1008.00  0.0000E+000
1008.50  0.0000E+000
1009.00  0.0000E+000
1009.50  0.0000E+000
1010.00  0.0000E+000
1010.50  0.0000E+000
1011.00  0.0000E+000
1011.50  0.0000E+000
1012.00  0.0000E+000
1012.50  0.0000E+000
1013.00  0.0000E+000
1013.50  0.0000E+000
1014.00  0.0000E+000
1014.50  0.0000E+000
1015.00  0.0000E+000
1015.50  0.0000E+000
1016.00  0.0000E+000
1016.50  0.0000E+000
1017.00  0.0000E+000
1017.50  0.0000E+000
1018.00  0.0000E+000
1018.50  0.0000E+000
1019.00  0.0000E+000
1019.50  0.0000E+000
1020.00  0.0000E+000
1020.50  0.0000E+000
1021.00  0.0000E+000
1021.50  0.0000E+000
1022.00  0.0000E+000
1022.50  0.0000E+000
1023.00  0.0000E+000
1023.50  0.0000E+000
1024.00  0.0000E+000
1024.50  0.0000E+000
1025.00  0.0000E+000
1025.50  0.0000E+000
1026.00  0.0000E+000
1026.50  0.0000E+000
1027.00  0.0000E+000
1027.50  0.0000E+000
1028.00  0.0000E+000
1028.50  0.0000E+000
1029.00  0.0000E+000
1029.50  0.0000E+000
1030.00  0.0000E+000
1030.50  0.0000E+000
1031.00  0.0000E+000
1031.50  0.0000E+000
1032.00  0.0000E+000
1032.50  0.0000E+000
1033.00  0.0000E+000
1033.50  0.0000E+000
1034.00  0.0000E+000
1034.50  0.0000E+000
1035.00  0.0000E+000
1035.50  0.0000E+000
1036.00  0.0000E+000
1036.50  0.0000E+000
1037.00  0.0000E+000
1037.50  0.0000E+000
1038.00  0.0000E+000
1038.50  0.0000E+000
1039.00  0.0000E+000
1039.50  0.0000E+000
1040.00  0.0000E+000
1040.50  0.0000E+000
1041.00  0.0000E+000
1041.50  0.0000E+000
1042.00  0.0000E+000
1042.50  0.0000E+000
1043.00  0.0000E+000
1043.50  0.0000E+000
1044.00  0.0000E+000
1044.50  0.0000E+000
1045.00  0.0000E+000
1045.50  0.0000E+000
1046.00  0.0000E+000
1046.50  0.0000E+000
1047.00  0.0000E+000
1047.50  0.0000E+000
1048.00  0.0000E+000
1048.50  0.0000E+000
1049.00  0.0000E+000
1049.50  0.0000E+000
1050.00  0.0000E+000
1050.50  0.0000E+000
1051.00  0.0000E+000
1051.50  0.0000E+000
1052.00  0.0000E+000
1052.50  0.0000E+000
1053.00  0.0000E+000
1053.50  0.0000E+000
1054.00  0.0000E+000
1054.50  0.0000E+000
1055.00  0.0000E+000
1055.50  0.0000E+000
1056.00  0.0000E+000
1056.50  0.0000E+000
1057.00  0.0000E+000
1057.50  0.0000E+000
1058.00  0.0000E+000
1058.50  0.0000E+000
1059.00  0.0000E+000
1059.50  0.0000E+000
1060.00  0.0000E+000
1060.50  0.0000E+000
1061.00  0.0000E+000
1061.50  0.0000E+000
1062.00  0.0000E+000
1062.50  0.0000E+000
1063.00  0.0000E+000
1063.50  0.0000E+000
1064.00  0.0000E+000
1064.50  0.0000E+000
1065.00  0.0000E+000
1065.50  0.0000E+000
1066.00  0.0000E+000
1066.50  0.0000E+000
1067.00  0.0000E+000
1067.50  0.0000E+000
1068.00  0.0000E+000
1068.50  0.0000E+000
1069.00  0.0000E+000
1069.50  0.0000E+000
1070.00  0.0000E+000
1070.50  0.0000E+000
1071.00  0.0000E+000
1071.50  0.0000E+000
1072.00  0.0000E+000
1072.50  0.0000E+000
1073.00  0.0000E+000
1073.50  0.0000E+000
1074.00  0.0000E+000
1074.50  0.0000E+000
1075.00  0.0000E+000
1075.50  0.0000E+000
1076.00  0.0000E+000
1076.50  0.0000E+000
1077.00  0.0000E+000
1077.50  0.0000E+000
1078.00  0.0000E+000
1078.50  0.0000E+000
1079.00  0.0000E+000
1079.50  0.0000E+000
1080.00  0.0000E+000
1080.50  0.0000E+000
1081.00  0.0000E+000
1081.50  0.0000E+000
1082.00  0.0000E+000
1082.50  0.0000E+000
1083.00  0.0000E+000
1083.50  0.0000E+000
1084.00  0.0000E+000
1084.50  0.0000E+000
1085.00  0.0000E+000
1085.50  0.0000E+000
1086.00  0.0000E+000
1086.50  0.0000E+000
1087.00  0.0000E+000
1087.50  0.0000E+000
1088.00  0.0000E+000
1088.50  0.0000E+000
1089.00  0.0000E+000
1089.50  0.0000E+000
1090.00  0.0000E+000
1090.50  0.0000E+000
1091.00  0.0000E+000
1091.50  0.0000E+000
1092.00  0.0000E+000
1092.50  0.0000E+000
1093.00  0.0000E+000
1093.50  0.0000E+000
1094.00  0.0000E+000
1094.50  0.0000E+000
1095.00  0.0000E+000
1095.50  0.0000E+000
1096.00  0.0000E+000
1096.50  0.0000E+000
1097.00  0.0000E+000
1097.50  0.0000E+000
1098.00  0.0000E+000
1098.50  0.0000E+000
1099.00  0.0000E+000
1099.50  0.0000E+000
1100.00  0.0000E+000
1100.50  0.0000E+000
1101.00  0.0000E+000
1101.50  0.0000E+000
1102.00  0.0000E+000
1102.50  0.0000E+000
1103.00  0.0000E+000
1103.50  0.0000E+000
1104.00  0.0000E+000
1104.50  0.0000E+000
1105.00  0.0000E+000
1105.50  0.0000E+000
1106.00  0.0000E+000
1106.50  0.0000E+000
1107.00  0.0000E+000
1107.50  0.0000E+000
1108.00  0.0000E+000
1108.50  0.0000E+000
1109.00  0.0000E+000
1109.50  0.0000E+000
1110.00  0.0000E+000
1110.50  0.0000E+000
1111.00  0.0000E+000
1111.50  0.0000E+000
1112.00  0.0000E+000
1112.50  0.0000E+000
1113.00  0.0000E+000
1113.50  0.0000E+000
1114.00  0.0000E+000
1114.50  0.0000E+000
1115.00  0.0000E+000
1115.50  0.0000E+000
1116.00  0.0000E+000
1116.50  0.0000E+000
1117.00  0.0000E+000
1117.50  0.0000E+000
1118.00  0.0000E+000
1118.50  0.0000E+000
1119.00  0.0000E+000
1119.50  0.0000E+000
1120.00  0.0000E+000
1120.50  0.0000E+000
1121.00  0.0000E+000
1121.50  0.0000E+000
1122.00  0.0000E+000
1122.50  0.0000E+000
1123.00  0.0000E+000
1123.50  0.0000E+000
1124.00  0.0000E+000
1124.50  0.0000E+000
1125.00  0.0000E+000
1125.50  0.0000E+000
1126.00  0.0000E+000
1126.50  0.0000E+000
1127.00  0.0000E+000
1127.50  0.0000E+000
: 6
