" File: 160128_ReferenceSpectra\16.IRR
" RAD->  Wave:366.44nm  Pix:434  Val:  0.000  Time:300ms  Avg:5  Sm:1  Sg:1  Tc:off  SNAP  Xt:1  Ch:1  Xtrig wnmcal >RAD-IS6.CAL
 180.00  0.0000E+000
 180.50  0.0000E+000
 181.00  0.0000E+000
 181.50  0.0000E+000
 182.00  0.0000E+000
 182.50  0.0000E+000
 183.00  0.0000E+000
 183.50  0.0000E+000
 184.00  0.0000E+000
 184.50  0.0000E+000
 185.00  0.0000E+000
 185.50  0.0000E+000
 186.00  0.0000E+000
 186.50  0.0000E+000
 187.00  0.0000E+000
 187.50  0.0000E+000
 188.00  0.0000E+000
 188.50  0.0000E+000
 189.00  0.0000E+000
 189.50  0.0000E+000
 190.00  0.0000E+000
 190.50  0.0000E+000
 191.00  0.0000E+000
 191.50  0.0000E+000
 192.00  0.0000E+000
 192.50  0.0000E+000
 193.00  0.0000E+000
 193.50  0.0000E+000
 194.00  0.0000E+000
 194.50  0.0000E+000
 195.00  0.0000E+000
 195.50  0.0000E+000
 196.00  0.0000E+000
 196.50  0.0000E+000
 197.00  0.0000E+000
 197.50  0.0000E+000
 198.00  0.0000E+000
 198.50  0.0000E+000
 199.00  0.0000E+000
 199.50  0.0000E+000
 200.00  0.0000E+000
 200.50  0.0000E+000
 201.00  0.0000E+000
 201.50  0.0000E+000
 202.00  0.0000E+000
 202.50  0.0000E+000
 203.00  0.0000E+000
 203.50  0.0000E+000
 204.00  0.0000E+000
 204.50  0.0000E+000
 205.00  0.0000E+000
 205.50  0.0000E+000
 206.00  0.0000E+000
 206.50  0.0000E+000
 207.00  0.0000E+000
 207.50  0.0000E+000
 208.00  0.0000E+000
 208.50  0.0000E+000
 209.00  0.0000E+000
 209.50  0.0000E+000
 210.00  0.0000E+000
 210.50  0.0000E+000
 211.00  0.0000E+000
 211.50  0.0000E+000
 212.00  0.0000E+000
 212.50  0.0000E+000
 213.00  0.0000E+000
 213.50  0.0000E+000
 214.00  0.0000E+000
 214.50  0.0000E+000
 215.00  0.0000E+000
 215.50  0.0000E+000
 216.00  0.0000E+000
 216.50  0.0000E+000
 217.00  0.0000E+000
 217.50  0.0000E+000
 218.00  0.0000E+000
 218.50  0.0000E+000
 219.00  0.0000E+000
 219.50  0.0000E+000
 220.00  0.0000E+000
 220.50  0.0000E+000
 221.00  0.0000E+000
 221.50  0.0000E+000
 222.00  0.0000E+000
 222.50  0.0000E+000
 223.00  0.0000E+000
 223.50  0.0000E+000
 224.00  0.0000E+000
 224.50  0.0000E+000
 225.00  0.0000E+000
 225.50  0.0000E+000
 226.00  0.0000E+000
 226.50  0.0000E+000
 227.00  0.0000E+000
 227.50  0.0000E+000
 228.00  0.0000E+000
 228.50  0.0000E+000
 229.00  0.0000E+000
 229.50  0.0000E+000
 230.00  0.0000E+000
 230.50  0.0000E+000
 231.00  0.0000E+000
 231.50  0.0000E+000
 232.00  0.0000E+000
 232.50  0.0000E+000
 233.00  0.0000E+000
 233.50  0.0000E+000
 234.00  0.0000E+000
 234.50  0.0000E+000
 235.00  0.0000E+000
 235.50  0.0000E+000
 236.00  0.0000E+000
 236.50  0.0000E+000
 237.00  0.0000E+000
 237.50  0.0000E+000
 238.00  0.0000E+000
 238.50  0.0000E+000
 239.00  0.0000E+000
 239.50  0.0000E+000
 240.00  0.0000E+000
 240.50  0.0000E+000
 241.00  0.0000E+000
 241.50  0.0000E+000
 242.00  0.0000E+000
 242.50  0.0000E+000
 243.00  0.0000E+000
 243.50  0.0000E+000
 244.00  0.0000E+000
 244.50  0.0000E+000
 245.00  0.0000E+000
 245.50  0.0000E+000
 246.00  0.0000E+000
 246.50  0.0000E+000
 247.00  0.0000E+000
 247.50  0.0000E+000
 248.00  0.0000E+000
 248.50  0.0000E+000
 249.00  0.0000E+000
 249.50  0.0000E+000
 250.00  0.0000E+000
 250.50  0.0000E+000
 251.00  0.0000E+000
 251.50  0.0000E+000
 252.00  0.0000E+000
 252.50  0.0000E+000
 253.00  0.0000E+000
 253.50  0.0000E+000
 254.00  0.0000E+000
 254.50  0.0000E+000
 255.00  0.0000E+000
 255.50  0.0000E+000
 256.00  0.0000E+000
 256.50  0.0000E+000
 257.00  0.0000E+000
 257.50  0.0000E+000
 258.00  0.0000E+000
 258.50  0.0000E+000
 259.00  0.0000E+000
 259.50  0.0000E+000
 260.00  0.0000E+000
 260.50  0.0000E+000
 261.00  0.0000E+000
 261.50  0.0000E+000
 262.00  0.0000E+000
 262.50  0.0000E+000
 263.00  0.0000E+000
 263.50  0.0000E+000
 264.00  0.0000E+000
 264.50  0.0000E+000
 265.00  0.0000E+000
 265.50  0.0000E+000
 266.00  0.0000E+000
 266.50  0.0000E+000
 267.00  0.0000E+000
 267.50  0.0000E+000
 268.00  0.0000E+000
 268.50  0.0000E+000
 269.00  0.0000E+000
 269.50  0.0000E+000
 270.00  0.0000E+000
 270.50  0.0000E+000
 271.00  0.0000E+000
 271.50  0.0000E+000
 272.00  0.0000E+000
 272.50  0.0000E+000
 273.00  0.0000E+000
 273.50  0.0000E+000
 274.00  0.0000E+000
 274.50  0.0000E+000
 275.00  0.0000E+000
 275.50  0.0000E+000
 276.00  0.0000E+000
 276.50  0.0000E+000
 277.00  0.0000E+000
 277.50  0.0000E+000
 278.00  0.0000E+000
 278.50  0.0000E+000
 279.00  0.0000E+000
 279.50  0.0000E+000
 280.00  0.0000E+000
 280.50  0.0000E+000
 281.00  0.0000E+000
 281.50  0.0000E+000
 282.00  0.0000E+000
 282.50  0.0000E+000
 283.00  0.0000E+000
 283.50  0.0000E+000
 284.00  0.0000E+000
 284.50  0.0000E+000
 285.00  0.0000E+000
 285.50  0.0000E+000
 286.00  0.0000E+000
 286.50  0.0000E+000
 287.00  0.0000E+000
 287.50  0.0000E+000
 288.00  0.0000E+000
 288.50  0.0000E+000
 289.00  0.0000E+000
 289.50  0.0000E+000
 290.00  0.0000E+000
 290.50  0.0000E+000
 291.00  0.0000E+000
 291.50  0.0000E+000
 292.00  0.0000E+000
 292.50  0.0000E+000
 293.00  0.0000E+000
 293.50  0.0000E+000
 294.00  0.0000E+000
 294.50  0.0000E+000
 295.00  0.0000E+000
 295.50  0.0000E+000
 296.00  0.0000E+000
 296.50  0.0000E+000
 297.00  0.0000E+000
 297.50  0.0000E+000
 298.00  0.0000E+000
 298.50  0.0000E+000
 299.00  0.0000E+000
 299.50  0.0000E+000
 300.00  0.0000E+000
 300.50  0.0000E+000
 301.00  0.0000E+000
 301.50  0.0000E+000
 302.00  0.0000E+000
 302.50  0.0000E+000
 303.00  0.0000E+000
 303.50  0.0000E+000
 304.00  0.0000E+000
 304.50  0.0000E+000
 305.00  0.0000E+000
 305.50  0.0000E+000
 306.00  0.0000E+000
 306.50  0.0000E+000
 307.00  0.0000E+000
 307.50  0.0000E+000
 308.00  0.0000E+000
 308.50  0.0000E+000
 309.00  0.0000E+000
 309.50  0.0000E+000
 310.00  0.0000E+000
 310.50  0.0000E+000
 311.00  0.0000E+000
 311.50  0.0000E+000
 312.00  0.0000E+000
 312.50  0.0000E+000
 313.00  0.0000E+000
 313.50  0.0000E+000
 314.00  0.0000E+000
 314.50  0.0000E+000
 315.00  0.0000E+000
 315.50  0.0000E+000
 316.00  0.0000E+000
 316.50  0.0000E+000
 317.00  0.0000E+000
 317.50  0.0000E+000
 318.00  0.0000E+000
 318.50  0.0000E+000
 319.00  0.0000E+000
 319.50  0.0000E+000
 320.00  0.0000E+000
 320.50  0.0000E+000
 321.00  0.0000E+000
 321.50  0.0000E+000
 322.00  0.0000E+000
 322.50  0.0000E+000
 323.00  0.0000E+000
 323.50  0.0000E+000
 324.00  0.0000E+000
 324.50  0.0000E+000
 325.00  0.0000E+000
 325.50  0.0000E+000
 326.00  0.0000E+000
 326.50  0.0000E+000
 327.00  0.0000E+000
 327.50  0.0000E+000
 328.00  0.0000E+000
 328.50  0.0000E+000
 329.00  0.0000E+000
 329.50  0.0000E+000
 330.00  0.0000E+000
 330.50  0.0000E+000
 331.00  0.0000E+000
 331.50  0.0000E+000
 332.00  0.0000E+000
 332.50  0.0000E+000
 333.00  0.0000E+000
 333.50  0.0000E+000
 334.00  0.0000E+000
 334.50  0.0000E+000
 335.00  0.0000E+000
 335.50  0.0000E+000
 336.00  0.0000E+000
 336.50  0.0000E+000
 337.00  0.0000E+000
 337.50  0.0000E+000
 338.00  0.0000E+000
 338.50  0.0000E+000
 339.00  0.0000E+000
 339.50  0.0000E+000
 340.00  0.0000E+000
 340.50  0.0000E+000
 341.00  0.0000E+000
 341.50  0.0000E+000
 342.00  0.0000E+000
 342.50  0.0000E+000
 343.00  0.0000E+000
 343.50  0.0000E+000
 344.00  0.0000E+000
 344.50  0.0000E+000
 345.00  0.0000E+000
 345.50  0.0000E+000
 346.00  0.0000E+000
 346.50  0.0000E+000
 347.00  0.0000E+000
 347.50  0.0000E+000
 348.00  0.0000E+000
 348.50  0.0000E+000
 349.00  0.0000E+000
 349.50  0.0000E+000
 350.00  0.0000E+000
 350.50  0.0000E+000
 351.00  0.0000E+000
 351.50  0.0000E+000
 352.00  0.0000E+000
 352.50  0.0000E+000
 353.00  0.0000E+000
 353.50  0.0000E+000
 354.00  0.0000E+000
 354.50  0.0000E+000
 355.00  0.0000E+000
 355.50  0.0000E+000
 356.00  0.0000E+000
 356.50  0.0000E+000
 357.00  0.0000E+000
 357.50  0.0000E+000
 358.00  0.0000E+000
 358.50  0.0000E+000
 359.00  0.0000E+000
 359.50  4.3076E-009
 360.00  7.1082E-008
 360.50  1.4385E-007
 361.00  1.7271E-007
 361.50  2.0867E-007
 362.00  2.2322E-007
 362.50  2.5179E-007
 363.00  3.2702E-007
 363.50  3.7228E-007
 364.00  3.8768E-007
 364.50  3.7267E-007
 365.00  2.9374E-007
 365.50  2.1441E-007
 366.00  1.7557E-007
 366.50  1.5816E-007
 367.00  1.6914E-007
 367.50  1.8266E-007
 368.00  1.9664E-007
 368.50  2.1265E-007
 369.00  2.2259E-007
 369.50  2.3069E-007
 370.00  2.8737E-007
 370.50  3.5753E-007
 371.00  3.6501E-007
 371.50  4.0608E-007
 372.00  3.9032E-007
 372.50  3.2117E-007
 373.00  2.9885E-007
 373.50  2.9948E-007
 374.00  3.4135E-007
 374.50  3.2325E-007
 375.00  3.1936E-007
 375.50  3.1765E-007
 376.00  3.0672E-007
 376.50  3.1730E-007
 377.00  3.7941E-007
 377.50  4.3329E-007
 378.00  4.3161E-007
 378.50  4.3883E-007
 379.00  4.0755E-007
 379.50  3.5338E-007
 380.00  3.2437E-007
 380.50  3.3225E-007
 381.00  3.4182E-007
 381.50  3.7391E-007
 382.00  4.5116E-007
 382.50  4.5384E-007
 383.00  4.7792E-007
 383.50  5.1029E-007
 384.00  5.5964E-007
 384.50  5.9672E-007
 385.00  6.3254E-007
 385.50  6.3063E-007
 386.00  5.8737E-007
 386.50  4.7540E-007
 387.00  3.7894E-007
 387.50  3.2578E-007
 388.00  2.7857E-007
 388.50  2.6078E-007
 389.00  2.9862E-007
 389.50  3.1998E-007
 390.00  3.2084E-007
 390.50  3.2540E-007
 391.00  3.3177E-007
 391.50  3.3534E-007
 392.00  3.3486E-007
 392.50  3.8966E-007
 393.00  4.3163E-007
 393.50  4.3270E-007
 394.00  4.8563E-007
 394.50  5.3037E-007
 395.00  5.3891E-007
 395.50  6.1588E-007
 396.00  6.3850E-007
 396.50  6.5432E-007
 397.00  6.7620E-007
 397.50  6.6069E-007
 398.00  6.2445E-007
 398.50  5.7986E-007
 399.00  5.3039E-007
 399.50  5.1115E-007
 400.00  5.5178E-007
 400.50  5.8811E-007
 401.00  5.8387E-007
 401.50  5.7588E-007
 402.00  5.4244E-007
 402.50  5.0620E-007
 403.00  5.1562E-007
 403.50  5.4210E-007
 404.00  6.0357E-007
 404.50  6.1449E-007
 405.00  5.9263E-007
 405.50  5.6841E-007
 406.00  5.1244E-007
 406.50  4.4265E-007
 407.00  4.0015E-007
 407.50  4.1432E-007
 408.00  4.1703E-007
 408.50  4.1525E-007
 409.00  4.6784E-007
 409.50  4.8491E-007
 410.00  4.6911E-007
 410.50  4.7709E-007
 411.00  4.6175E-007
 411.50  4.2801E-007
 412.00  3.7815E-007
 412.50  3.3863E-007
 413.00  3.2338E-007
 413.50  2.6734E-007
 414.00  2.3918E-007
 414.50  1.9775E-007
 415.00  1.4668E-007
 415.50  1.2410E-007
 416.00  1.0693E-007
 416.50  8.4181E-008
 417.00  9.3518E-008
 417.50  9.4103E-008
 418.00  1.1402E-007
 418.50  1.9321E-007
 419.00  2.5769E-007
 419.50  2.9719E-007
 420.00  3.2920E-007
 420.50  3.5893E-007
 421.00  3.5491E-007
 421.50  3.4314E-007
 422.00  3.3720E-007
 422.50  3.4304E-007
 423.00  2.9308E-007
 423.50  2.9606E-007
 424.00  3.0301E-007
 424.50  3.2574E-007
 425.00  3.6826E-007
 425.50  4.2362E-007
 426.00  5.4399E-007
 426.50  6.0425E-007
 427.00  6.9763E-007
 427.50  7.1335E-007
 428.00  6.6047E-007
 428.50  5.6889E-007
 429.00  5.1571E-007
 429.50  4.6329E-007
 430.00  4.6787E-007
 430.50  4.9874E-007
 431.00  5.1887E-007
 431.50  5.0322E-007
 432.00  5.0611E-007
 432.50  4.8380E-007
 433.00  4.5211E-007
 433.50  4.2402E-007
 434.00  4.0304E-007
 434.50  3.9098E-007
 435.00  3.8884E-007
 435.50  3.7750E-007
 436.00  3.3843E-007
 436.50  3.0366E-007
 437.00  2.7566E-007
 437.50  2.6369E-007
 438.00  2.4799E-007
 438.50  2.4100E-007
 439.00  2.2253E-007
 439.50  1.9450E-007
 440.00  2.0310E-007
 440.50  2.3859E-007
 441.00  2.9037E-007
 441.50  3.6661E-007
 442.00  4.1239E-007
 442.50  4.2002E-007
 443.00  4.0206E-007
 443.50  3.5565E-007
 444.00  3.2175E-007
 444.50  3.0562E-007
 445.00  3.2997E-007
 445.50  3.5151E-007
 446.00  3.6329E-007
 446.50  4.0080E-007
 447.00  4.1315E-007
 447.50  3.6557E-007
 448.00  3.3732E-007
 448.50  2.9469E-007
 449.00  2.4911E-007
 449.50  2.4919E-007
 450.00  2.6472E-007
 450.50  2.8640E-007
 451.00  3.1216E-007
 451.50  3.5473E-007
 452.00  4.1689E-007
 452.50  4.4342E-007
 453.00  4.4792E-007
 453.50  4.3857E-007
 454.00  4.1612E-007
 454.50  3.9291E-007
 455.00  3.7219E-007
 455.50  3.6727E-007
 456.00  3.4598E-007
 456.50  3.0016E-007
 457.00  2.8671E-007
 457.50  2.9542E-007
 458.00  2.9430E-007
 458.50  3.1008E-007
 459.00  3.1444E-007
 459.50  3.2511E-007
 460.00  3.2307E-007
 460.50  3.2967E-007
 461.00  3.1551E-007
 461.50  3.2071E-007
 462.00  3.1248E-007
 462.50  3.1616E-007
 463.00  3.2518E-007
 463.50  3.1986E-007
 464.00  2.9776E-007
 464.50  2.7455E-007
 465.00  2.1875E-007
 465.50  1.8472E-007
 466.00  1.4989E-007
 466.50  1.2221E-007
 467.00  1.0573E-007
 467.50  1.0694E-007
 468.00  1.1220E-007
 468.50  1.1761E-007
 469.00  1.4291E-007
 469.50  1.5140E-007
 470.00  1.5790E-007
 470.50  1.8559E-007
 471.00  2.0566E-007
 471.50  2.1447E-007
 472.00  2.5104E-007
 472.50  2.8474E-007
 473.00  2.9438E-007
 473.50  3.0308E-007
 474.00  2.9930E-007
 474.50  2.7640E-007
 475.00  2.6473E-007
 475.50  2.6843E-007
 476.00  2.8488E-007
 476.50  2.7998E-007
 477.00  2.5555E-007
 477.50  2.2373E-007
 478.00  1.8418E-007
 478.50  1.7126E-007
 479.00  1.5792E-007
 479.50  1.7429E-007
 480.00  2.0408E-007
 480.50  2.2823E-007
 481.00  2.5922E-007
 481.50  2.7933E-007
 482.00  2.7019E-007
 482.50  2.5550E-007
 483.00  2.1943E-007
 483.50  1.9274E-007
 484.00  1.7741E-007
 484.50  1.6684E-007
 485.00  1.6151E-007
 485.50  1.9929E-007
 486.00  2.3984E-007
 486.50  2.7660E-007
 487.00  3.1988E-007
 487.50  3.3571E-007
 488.00  3.2647E-007
 488.50  3.2641E-007
 489.00  3.1119E-007
 489.50  2.8327E-007
 490.00  2.8263E-007
 490.50  2.7972E-007
 491.00  2.9781E-007
 491.50  3.1530E-007
 492.00  3.0818E-007
 492.50  2.9592E-007
 493.00  2.5360E-007
 493.50  2.1368E-007
 494.00  1.9530E-007
 494.50  1.8006E-007
 495.00  1.8776E-007
 495.50  2.1561E-007
 496.00  2.6959E-007
 496.50  3.3551E-007
 497.00  3.9411E-007
 497.50  4.4032E-007
 498.00  4.8552E-007
 498.50  5.3562E-007
 499.00  6.1111E-007
 499.50  6.3467E-007
 500.00  6.3163E-007
 500.50  6.1087E-007
 501.00  5.6350E-007
 501.50  5.3564E-007
 502.00  5.4048E-007
 502.50  5.3644E-007
 503.00  5.2209E-007
 503.50  4.9688E-007
 504.00  4.8264E-007
 504.50  4.4861E-007
 505.00  4.3870E-007
 505.50  4.2455E-007
 506.00  4.0595E-007
 506.50  3.9661E-007
 507.00  4.0418E-007
 507.50  4.3380E-007
 508.00  4.8076E-007
 508.50  5.2014E-007
 509.00  5.5335E-007
 509.50  5.8227E-007
 510.00  5.6151E-007
 510.50  5.1345E-007
 511.00  4.5229E-007
 511.50  3.9268E-007
 512.00  3.5688E-007
 512.50  3.3665E-007
 513.00  3.7336E-007
 513.50  4.2545E-007
 514.00  4.7084E-007
 514.50  4.8908E-007
 515.00  5.0541E-007
 515.50  4.9504E-007
 516.00  5.0345E-007
 516.50  4.8617E-007
 517.00  4.7185E-007
 517.50  4.4485E-007
 518.00  3.9321E-007
 518.50  3.5377E-007
 519.00  3.2527E-007
 519.50  3.1299E-007
 520.00  3.6674E-007
 520.50  4.2197E-007
 521.00  4.5475E-007
 521.50  5.1059E-007
 522.00  5.3073E-007
 522.50  5.3841E-007
 523.00  5.7263E-007
 523.50  6.1616E-007
 524.00  6.5248E-007
 524.50  6.6640E-007
 525.00  6.8486E-007
 525.50  6.9462E-007
 526.00  6.9185E-007
 526.50  6.9434E-007
 527.00  6.9225E-007
 527.50  6.6480E-007
 528.00  6.1649E-007
 528.50  5.7371E-007
 529.00  5.5617E-007
 529.50  5.2582E-007
 530.00  5.1205E-007
 530.50  5.1495E-007
 531.00  5.4656E-007
 531.50  5.9495E-007
 532.00  6.6263E-007
 532.50  7.0074E-007
 533.00  7.2787E-007
 533.50  7.6387E-007
 534.00  8.1281E-007
 534.50  8.5952E-007
 535.00  8.8487E-007
 535.50  8.8351E-007
 536.00  8.2616E-007
 536.50  7.4663E-007
 537.00  6.8649E-007
 537.50  6.5423E-007
 538.00  6.0846E-007
 538.50  5.7335E-007
 539.00  5.9027E-007
 539.50  5.9520E-007
 540.00  6.1728E-007
 540.50  6.5637E-007
 541.00  6.8973E-007
 541.50  7.1918E-007
 542.00  7.5962E-007
 542.50  7.8595E-007
 543.00  8.2492E-007
 543.50  8.6215E-007
 544.00  8.9475E-007
 544.50  9.2039E-007
 545.00  9.2803E-007
 545.50  9.1950E-007
 546.00  9.1034E-007
 546.50  9.3300E-007
 547.00  9.7688E-007
 547.50  1.0406E-006
 548.00  1.0862E-006
 548.50  1.1224E-006
 549.00  1.0993E-006
 549.50  1.0652E-006
 550.00  1.0712E-006
 550.50  1.1279E-006
 551.00  1.1214E-006
 551.50  1.1087E-006
 552.00  1.1574E-006
 552.50  1.1796E-006
 553.00  1.1181E-006
 553.50  1.1560E-006
 554.00  1.1663E-006
 554.50  1.1272E-006
 555.00  1.0864E-006
 555.50  1.0582E-006
 556.00  1.0130E-006
 556.50  9.2377E-007
 557.00  8.2924E-007
 557.50  7.7338E-007
 558.00  7.9074E-007
 558.50  8.6782E-007
 559.00  1.0427E-006
 559.50  1.1925E-006
 560.00  1.2992E-006
 560.50  1.4036E-006
 561.00  1.4577E-006
 561.50  1.4687E-006
 562.00  1.5398E-006
 562.50  1.5606E-006
 563.00  1.5812E-006
 563.50  1.5676E-006
 564.00  1.5703E-006
 564.50  1.5148E-006
 565.00  1.4972E-006
 565.50  1.4661E-006
 566.00  1.4205E-006
 566.50  1.3567E-006
 567.00  1.3318E-006
 567.50  1.3216E-006
 568.00  1.2972E-006
 568.50  1.3097E-006
 569.00  1.4085E-006
 569.50  1.4923E-006
 570.00  1.6002E-006
 570.50  1.6792E-006
 571.00  1.7411E-006
 571.50  1.7741E-006
 572.00  1.7460E-006
 572.50  1.7591E-006
 573.00  1.8291E-006
 573.50  1.8427E-006
 574.00  1.8624E-006
 574.50  1.9036E-006
 575.00  1.9175E-006
 575.50  1.9310E-006
 576.00  1.9708E-006
 576.50  1.9675E-006
 577.00  1.9497E-006
 577.50  1.9124E-006
 578.00  1.8722E-006
 578.50  1.8798E-006
 579.00  1.9105E-006
 579.50  1.9677E-006
 580.00  2.0258E-006
 580.50  2.0801E-006
 581.00  2.2196E-006
 581.50  2.2596E-006
 582.00  2.2826E-006
 582.50  2.3106E-006
 583.00  2.3033E-006
 583.50  2.2914E-006
 584.00  2.3022E-006
 584.50  2.2297E-006
 585.00  2.1938E-006
 585.50  2.2081E-006
 586.00  2.2120E-006
 586.50  2.3238E-006
 587.00  2.4123E-006
 587.50  2.5116E-006
 588.00  2.6065E-006
 588.50  2.7103E-006
 589.00  2.9021E-006
 589.50  3.1512E-006
 590.00  3.3701E-006
 590.50  3.5658E-006
 591.00  3.7664E-006
 591.50  3.9354E-006
 592.00  4.0378E-006
 592.50  4.1592E-006
 593.00  4.1631E-006
 593.50  4.2087E-006
 594.00  4.2397E-006
 594.50  4.2821E-006
 595.00  4.3680E-006
 595.50  4.4979E-006
 596.00  4.6073E-006
 596.50  4.7256E-006
 597.00  4.8564E-006
 597.50  5.0028E-006
 598.00  5.1473E-006
 598.50  5.2798E-006
 599.00  5.3498E-006
 599.50  5.4091E-006
 600.00  5.4959E-006
 600.50  5.6324E-006
 601.00  5.8112E-006
 601.50  5.9771E-006
 602.00  6.1520E-006
 602.50  6.3378E-006
 603.00  6.4499E-006
 603.50  6.6059E-006
 604.00  6.7921E-006
 604.50  7.0002E-006
 605.00  7.1944E-006
 605.50  7.4617E-006
 606.00  7.7379E-006
 606.50  8.0893E-006
 607.00  8.4802E-006
 607.50  8.8717E-006
 608.00  9.2662E-006
 608.50  9.6284E-006
 609.00  1.0014E-005
 609.50  1.0393E-005
 610.00  1.0725E-005
 610.50  1.1127E-005
 611.00  1.1468E-005
 611.50  1.1729E-005
 612.00  1.2036E-005
 612.50  1.2356E-005
 613.00  1.2702E-005
 613.50  1.3184E-005
 614.00  1.3726E-005
 614.50  1.4269E-005
 615.00  1.4912E-005
 615.50  1.5630E-005
 616.00  1.6266E-005
 616.50  1.7008E-005
 617.00  1.7714E-005
 617.50  1.8397E-005
 618.00  1.8984E-005
 618.50  1.9698E-005
 619.00  2.0497E-005
 619.50  2.1331E-005
 620.00  2.2266E-005
 620.50  2.3214E-005
 621.00  2.4124E-005
 621.50  2.5073E-005
 622.00  2.6092E-005
 622.50  2.7174E-005
 623.00  2.8307E-005
 623.50  2.9496E-005
 624.00  3.0736E-005
 624.50  3.1984E-005
 625.00  3.3266E-005
 625.50  3.4659E-005
 626.00  3.6110E-005
 626.50  3.7635E-005
 627.00  3.9243E-005
 627.50  4.0913E-005
 628.00  4.2647E-005
 628.50  4.4394E-005
 629.00  4.6188E-005
 629.50  4.8086E-005
 630.00  5.0074E-005
 630.50  5.2129E-005
 631.00  5.4441E-005
 631.50  5.6775E-005
 632.00  5.9114E-005
 632.50  6.1633E-005
 633.00  6.4302E-005
 633.50  6.7072E-005
 634.00  7.0057E-005
 634.50  7.3254E-005
 635.00  7.6586E-005
 635.50  8.0023E-005
 636.00  8.3648E-005
 636.50  8.7556E-005
 637.00  9.1636E-005
 637.50  9.5923E-005
 638.00  1.0046E-004
 638.50  1.0507E-004
 639.00  1.0984E-004
 639.50  1.1480E-004
 640.00  1.2002E-004
 640.50  1.2567E-004
 641.00  1.3176E-004
 641.50  1.3814E-004
 642.00  1.4498E-004
 642.50  1.5218E-004
 643.00  1.5963E-004
 643.50  1.6740E-004
 644.00  1.7546E-004
 644.50  1.8359E-004
 645.00  1.9197E-004
 645.50  2.0067E-004
 646.00  2.0978E-004
 646.50  2.1962E-004
 647.00  2.3024E-004
 647.50  2.4150E-004
 648.00  2.5339E-004
 648.50  2.6599E-004
 649.00  2.7910E-004
 649.50  2.9279E-004
 650.00  3.0754E-004
 650.50  3.2301E-004
 651.00  3.3912E-004
 651.50  3.5598E-004
 652.00  3.7361E-004
 652.50  3.9203E-004
 653.00  4.1144E-004
 653.50  4.3195E-004
 654.00  4.5351E-004
 654.50  4.7596E-004
 655.00  4.9937E-004
 655.50  5.2383E-004
 656.00  5.4919E-004
 656.50  5.7564E-004
 657.00  6.0289E-004
 657.50  6.3086E-004
 658.00  6.5993E-004
 658.50  6.9038E-004
 659.00  7.2209E-004
 659.50  7.5517E-004
 660.00  7.8948E-004
 660.50  8.2528E-004
 661.00  8.6316E-004
 661.50  9.0347E-004
 662.00  9.4671E-004
 662.50  9.9294E-004
 663.00  1.0415E-003
 663.50  1.0918E-003
 664.00  1.1442E-003
 664.50  1.1985E-003
 665.00  1.2549E-003
 665.50  1.3138E-003
 666.00  1.3753E-003
 666.50  1.4393E-003
 667.00  1.5045E-003
 667.50  1.5701E-003
 668.00  1.6353E-003
 668.50  1.7001E-003
 669.00  1.7650E-003
 669.50  1.8315E-003
 670.00  1.9003E-003
 670.50  1.9715E-003
 671.00  2.0453E-003
 671.50  2.1200E-003
 672.00  2.1945E-003
 672.50  2.2671E-003
 673.00  2.3357E-003
 673.50  2.3990E-003
 674.00  2.4565E-003
 674.50  2.5075E-003
 675.00  2.5519E-003
 675.50  2.5911E-003
 676.00  2.6258E-003
 676.50  2.6554E-003
 677.00  2.6796E-003
 677.50  2.6955E-003
 678.00  2.7009E-003
 678.50  2.6957E-003
 679.00  2.6824E-003
 679.50  2.6629E-003
 680.00  2.6387E-003
 680.50  2.6098E-003
 681.00  2.5759E-003
 681.50  2.5363E-003
 682.00  2.4915E-003
 682.50  2.4423E-003
 683.00  2.3884E-003
 683.50  2.3302E-003
 684.00  2.2678E-003
 684.50  2.2018E-003
 685.00  2.1325E-003
 685.50  2.0610E-003
 686.00  1.9875E-003
 686.50  1.9131E-003
 687.00  1.8383E-003
 687.50  1.7642E-003
 688.00  1.6915E-003
 688.50  1.6207E-003
 689.00  1.5519E-003
 689.50  1.4853E-003
 690.00  1.4215E-003
 690.50  1.3605E-003
 691.00  1.3021E-003
 691.50  1.2463E-003
 692.00  1.1924E-003
 692.50  1.1395E-003
 693.00  1.0877E-003
 693.50  1.0373E-003
 694.00  9.8847E-004
 694.50  9.4144E-004
 695.00  8.9687E-004
 695.50  8.5475E-004
 696.00  8.1472E-004
 696.50  7.7674E-004
 697.00  7.4053E-004
 697.50  7.0575E-004
 698.00  6.7219E-004
 698.50  6.3959E-004
 699.00  6.0773E-004
 699.50  5.7647E-004
 700.00  5.4594E-004
 700.50  5.1626E-004
 701.00  4.8751E-004
 701.50  4.6038E-004
 702.00  4.3501E-004
 702.50  4.1128E-004
 703.00  3.8915E-004
 703.50  3.6842E-004
 704.00  3.4878E-004
 704.50  3.3024E-004
 705.00  3.1273E-004
 705.50  2.9633E-004
 706.00  2.8119E-004
 706.50  2.6703E-004
 707.00  2.5385E-004
 707.50  2.4162E-004
 708.00  2.3008E-004
 708.50  2.1919E-004
 709.00  2.0912E-004
 709.50  1.9948E-004
 710.00  1.9039E-004
 710.50  1.8196E-004
 711.00  1.7389E-004
 711.50  1.6621E-004
 712.00  1.5905E-004
 712.50  1.5224E-004
 713.00  1.4579E-004
 713.50  1.3968E-004
 714.00  1.3396E-004
 714.50  1.2862E-004
 715.00  1.2385E-004
 715.50  1.1938E-004
 716.00  1.1534E-004
 716.50  1.1169E-004
 717.00  1.0821E-004
 717.50  1.0468E-004
 718.00  1.0130E-004
 718.50  9.8010E-005
 719.00  9.4808E-005
 719.50  9.1912E-005
 720.00  8.9363E-005
 720.50  8.7046E-005
 721.00  8.4945E-005
 721.50  8.3070E-005
 722.00  8.1261E-005
 722.50  7.9501E-005
 723.00  7.7844E-005
 723.50  7.6253E-005
 724.00  7.4519E-005
 724.50  7.3126E-005
 725.00  7.1906E-005
 725.50  7.0468E-005
 726.00  6.9177E-005
 726.50  6.8036E-005
 727.00  6.6821E-005
 727.50  6.5903E-005
 728.00  6.5233E-005
 728.50  6.4660E-005
 729.00  6.3974E-005
 729.50  6.3166E-005
 730.00  6.2067E-005
 730.50  6.1004E-005
 731.00  5.9732E-005
 731.50  5.8827E-005
 732.00  5.8104E-005
 732.50  5.7513E-005
 733.00  5.7063E-005
 733.50  5.6687E-005
 734.00  5.6178E-005
 734.50  5.5461E-005
 735.00  5.4704E-005
 735.50  5.3877E-005
 736.00  5.3081E-005
 736.50  5.2446E-005
 737.00  5.2023E-005
 737.50  5.1498E-005
 738.00  5.0890E-005
 738.50  5.0413E-005
 739.00  4.9874E-005
 739.50  4.9221E-005
 740.00  4.8684E-005
 740.50  4.8129E-005
 741.00  4.7183E-005
 741.50  4.6293E-005
 742.00  4.5373E-005
 742.50  4.4512E-005
 743.00  4.3747E-005
 743.50  4.3173E-005
 744.00  4.2962E-005
 744.50  4.2922E-005
 745.00  4.2809E-005
 745.50  4.2579E-005
 746.00  4.2239E-005
 746.50  4.1297E-005
 747.00  4.0212E-005
 747.50  3.9099E-005
 748.00  3.8223E-005
 748.50  3.7312E-005
 749.00  3.7013E-005
 749.50  3.6962E-005
 750.00  3.7033E-005
 750.50  3.7310E-005
 751.00  3.7565E-005
 751.50  3.7486E-005
 752.00  3.7095E-005
 752.50  3.6532E-005
 753.00  3.5967E-005
 753.50  3.5453E-005
 754.00  3.5130E-005
 754.50  3.4835E-005
 755.00  3.4391E-005
 755.50  3.3781E-005
 756.00  3.3247E-005
 756.50  3.2697E-005
 757.00  3.2310E-005
 757.50  3.1871E-005
 758.00  3.1636E-005
 758.50  3.1311E-005
 759.00  3.0971E-005
 759.50  3.0706E-005
 760.00  3.0433E-005
 760.50  2.9987E-005
 761.00  2.9694E-005
 761.50  2.9427E-005
 762.00  2.9085E-005
 762.50  2.8799E-005
 763.00  2.8455E-005
 763.50  2.8014E-005
 764.00  2.7680E-005
 764.50  2.7219E-005
 765.00  2.6434E-005
 765.50  2.5961E-005
 766.00  2.5639E-005
 766.50  2.5288E-005
 767.00  2.5199E-005
 767.50  2.5284E-005
 768.00  2.5193E-005
 768.50  2.4966E-005
 769.00  2.4791E-005
 769.50  2.4751E-005
 770.00  2.4402E-005
 770.50  2.3889E-005
 771.00  2.3654E-005
 771.50  2.3858E-005
 772.00  2.3693E-005
 772.50  2.4027E-005
 773.00  2.4344E-005
 773.50  2.4306E-005
 774.00  2.3664E-005
 774.50  2.3327E-005
 775.00  2.2956E-005
 775.50  2.2574E-005
 776.00  2.2186E-005
 776.50  2.1808E-005
 777.00  2.1307E-005
 777.50  2.0718E-005
 778.00  2.0318E-005
 778.50  2.0038E-005
 779.00  1.9815E-005
 779.50  1.9824E-005
 780.00  1.9911E-005
 780.50  2.0119E-005
 781.00  2.0419E-005
 781.50  2.0949E-005
 782.00  2.1396E-005
 782.50  2.1676E-005
 783.00  2.1631E-005
 783.50  2.0946E-005
 784.00  2.0202E-005
 784.50  1.9619E-005
 785.00  1.9099E-005
 785.50  1.8480E-005
 786.00  1.8060E-005
 786.50  1.7586E-005
 787.00  1.7083E-005
 787.50  1.6657E-005
 788.00  1.6680E-005
 788.50  1.6974E-005
 789.00  1.7205E-005
 789.50  1.7449E-005
 790.00  1.7694E-005
 790.50  1.7755E-005
 791.00  1.7267E-005
 791.50  1.6667E-005
 792.00  1.6192E-005
 792.50  1.5521E-005
 793.00  1.4946E-005
 793.50  1.4576E-005
 794.00  1.3934E-005
 794.50  1.3422E-005
 795.00  1.3111E-005
 795.50  1.3143E-005
 796.00  1.3512E-005
 796.50  1.4103E-005
 797.00  1.4808E-005
 797.50  1.5356E-005
 798.00  1.5623E-005
 798.50  1.5842E-005
 799.00  1.5982E-005
 799.50  1.5451E-005
 800.00  1.4647E-005
 800.50  1.3954E-005
 801.00  1.3287E-005
 801.50  1.2647E-005
 802.00  1.2706E-005
 802.50  1.3432E-005
 803.00  1.4186E-005
 803.50  1.4617E-005
 804.00  1.4824E-005
 804.50  1.4933E-005
 805.00  1.4709E-005
 805.50  1.4452E-005
 806.00  1.4604E-005
 806.50  1.4839E-005
 807.00  1.4700E-005
 807.50  1.4336E-005
 808.00  1.4028E-005
 808.50  1.3529E-005
 809.00  1.3092E-005
 809.50  1.3170E-005
 810.00  1.3181E-005
 810.50  1.2770E-005
 811.00  1.2282E-005
 811.50  1.1885E-005
 812.00  1.1063E-005
 812.50  1.0940E-005
 813.00  1.1420E-005
 813.50  1.1812E-005
 814.00  1.1895E-005
 814.50  1.2189E-005
 815.00  1.2235E-005
 815.50  1.1939E-005
 816.00  1.1802E-005
 816.50  1.1925E-005
 817.00  1.1849E-005
 817.50  1.1668E-005
 818.00  1.1533E-005
 818.50  1.1474E-005
 819.00  1.1427E-005
 819.50  1.1461E-005
 820.00  1.1506E-005
 820.50  1.2047E-005
 821.00  1.2131E-005
 821.50  1.2275E-005
 822.00  1.2263E-005
 822.50  1.2004E-005
 823.00  1.1426E-005
 823.50  1.1109E-005
 824.00  1.0526E-005
 824.50  9.9400E-006
 825.00  9.5802E-006
 825.50  9.1304E-006
 826.00  8.8738E-006
 826.50  9.0873E-006
 827.00  9.4942E-006
 827.50  9.8862E-006
 828.00  1.0328E-005
 828.50  1.0622E-005
 829.00  1.0748E-005
 829.50  1.0758E-005
 830.00  1.0545E-005
 830.50  1.0396E-005
 831.00  1.0290E-005
 831.50  1.0119E-005
 832.00  1.0010E-005
 832.50  1.0005E-005
 833.00  1.0021E-005
 833.50  1.0272E-005
 834.00  1.0014E-005
 834.50  9.9327E-006
 835.00  1.0212E-005
 835.50  1.0530E-005
 836.00  1.0298E-005
 836.50  1.0481E-005
 837.00  1.0856E-005
 837.50  1.0993E-005
 838.00  1.1076E-005
 838.50  1.1250E-005
 839.00  1.0873E-005
 839.50  1.0261E-005
 840.00  9.6606E-006
 840.50  9.1537E-006
 841.00  8.7119E-006
 841.50  8.5407E-006
 842.00  8.3567E-006
 842.50  8.0019E-006
 843.00  7.7508E-006
 843.50  8.4366E-006
 844.00  9.1064E-006
 844.50  9.4236E-006
 845.00  9.9850E-006
 845.50  1.0343E-005
 846.00  1.0212E-005
 846.50  1.0278E-005
 847.00  1.0590E-005
 847.50  1.0369E-005
 848.00  9.7087E-006
 848.50  9.0268E-006
 849.00  8.0405E-006
 849.50  7.0555E-006
 850.00  6.6781E-006
 850.50  6.2080E-006
 851.00  5.6666E-006
 851.50  5.1015E-006
 852.00  4.9273E-006
 852.50  4.8434E-006
 853.00  4.9250E-006
 853.50  4.9531E-006
 854.00  5.4595E-006
 854.50  5.0474E-006
 855.00  4.9948E-006
 855.50  5.3050E-006
 856.00  5.9335E-006
 856.50  6.3450E-006
 857.00  6.6563E-006
 857.50  6.6146E-006
 858.00  6.5618E-006
 858.50  6.4377E-006
 859.00  6.3265E-006
 859.50  6.6339E-006
 860.00  7.0672E-006
 860.50  7.3057E-006
 861.00  7.4281E-006
 861.50  7.5660E-006
 862.00  7.8094E-006
 862.50  8.2486E-006
 863.00  8.7560E-006
 863.50  8.9086E-006
 864.00  9.2774E-006
 864.50  9.6439E-006
 865.00  9.9637E-006
 865.50  1.0182E-005
 866.00  1.1413E-005
 866.50  1.2163E-005
 867.00  1.2211E-005
 867.50  1.1898E-005
 868.00  1.1468E-005
 868.50  1.0494E-005
 869.00  9.9053E-006
 869.50  9.8412E-006
 870.00  1.0225E-005
 870.50  1.0767E-005
 871.00  1.1346E-005
 871.50  1.1726E-005
 872.00  1.2335E-005
 872.50  1.3217E-005
 873.00  1.4511E-005
 873.50  1.5832E-005
 874.00  1.7560E-005
 874.50  1.9535E-005
 875.00  2.0907E-005
 875.50  2.1371E-005
 876.00  2.2246E-005
 876.50  2.1369E-005
 877.00  1.9873E-005
 877.50  1.8338E-005
 878.00  1.7142E-005
 878.50  1.5429E-005
 879.00  1.4741E-005
 879.50  1.4088E-005
 880.00  1.3929E-005
 880.50  1.3407E-005
 881.00  1.2867E-005
 881.50  1.1495E-005
 882.00  9.9042E-006
 882.50  8.6451E-006
 883.00  7.3857E-006
 883.50  6.3278E-006
 884.00  6.2517E-006
 884.50  6.0588E-006
 885.00  5.9234E-006
 885.50  5.9342E-006
 886.00  5.7693E-006
 886.50  5.7579E-006
 887.00  5.8033E-006
 887.50  5.3490E-006
 888.00  5.8304E-006
 888.50  6.4585E-006
 889.00  6.3174E-006
 889.50  6.5941E-006
 890.00  7.4357E-006
 890.50  7.4490E-006
 891.00  7.4306E-006
 891.50  7.4408E-006
 892.00  6.7881E-006
 892.50  5.9957E-006
 893.00  5.9267E-006
 893.50  5.7531E-006
 894.00  6.0643E-006
 894.50  6.4355E-006
 895.00  6.5129E-006
 895.50  6.4654E-006
 896.00  6.3174E-006
 896.50  6.0504E-006
 897.00  6.1085E-006
 897.50  6.6839E-006
 898.00  7.0874E-006
 898.50  7.6767E-006
 899.00  7.8542E-006
 899.50  8.0334E-006
 900.00  8.2560E-006
 900.50  8.9400E-006
 901.00  9.0157E-006
 901.50  9.3615E-006
 902.00  8.8452E-006
 902.50  7.7049E-006
 903.00  5.8980E-006
 903.50  4.9726E-006
 904.00  4.7014E-006
 904.50  5.2384E-006
 905.00  5.2588E-006
 905.50  5.8280E-006
 906.00  5.8809E-006
 906.50  5.5760E-006
 907.00  4.7776E-006
 907.50  4.1865E-006
 908.00  3.7243E-006
 908.50  3.3355E-006
 909.00  3.2535E-006
 909.50  3.4050E-006
 910.00  3.8603E-006
 910.50  5.0956E-006
 911.00  6.8627E-006
 911.50  8.3547E-006
 912.00  9.6610E-006
 912.50  1.0581E-005
 913.00  1.0360E-005
 913.50  9.2456E-006
 914.00  8.4481E-006
 914.50  7.6238E-006
 915.00  7.4478E-006
 915.50  7.7055E-006
 916.00  7.7668E-006
 916.50  8.0185E-006
 917.00  8.1939E-006
 917.50  7.5337E-006
 918.00  6.1621E-006
 918.50  5.3487E-006
 919.00  4.4383E-006
 919.50  4.1541E-006
 920.00  4.0136E-006
 920.50  4.5586E-006
 921.00  4.9827E-006
 921.50  5.2891E-006
 922.00  5.2929E-006
 922.50  5.6844E-006
 923.00  6.2722E-006
 923.50  7.1364E-006
 924.00  8.3121E-006
 924.50  9.0759E-006
 925.00  9.3032E-006
 925.50  9.4689E-006
 926.00  8.8335E-006
 926.50  7.9109E-006
 927.00  7.9582E-006
 927.50  7.7701E-006
 928.00  8.5209E-006
 928.50  9.7910E-006
 929.00  1.1698E-005
 929.50  1.2425E-005
 930.00  1.4671E-005
 930.50  1.5937E-005
 931.00  1.5219E-005
 931.50  1.3325E-005
 932.00  1.1351E-005
 932.50  8.8171E-006
 933.00  5.8141E-006
 933.50  5.7809E-006
 934.00  6.3915E-006
 934.50  7.6331E-006
 935.00  7.8613E-006
 935.50  7.6630E-006
 936.00  7.4385E-006
 936.50  7.9591E-006
 937.00  8.7387E-006
 937.50  9.2724E-006
 938.00  9.9454E-006
 938.50  9.0155E-006
 939.00  6.4935E-006
 939.50  3.9701E-006
 940.00  2.3710E-006
 940.50  1.4794E-006
 941.00  1.3362E-006
 941.50  1.7846E-006
 942.00  2.5520E-006
 942.50  3.4867E-006
 943.00  3.9712E-006
 943.50  4.5297E-006
 944.00  5.6809E-006
 944.50  7.4079E-006
 945.00  7.3735E-006
 945.50  8.5999E-006
 946.00  1.0990E-005
 946.50  1.3354E-005
 947.00  1.4144E-005
 947.50  1.5672E-005
 948.00  1.5744E-005
 948.50  1.4869E-005
 949.00  1.2886E-005
 949.50  1.1886E-005
 950.00  1.1329E-005
 950.50  1.0803E-005
 951.00  9.8648E-006
 951.50  9.0337E-006
 952.00  8.3164E-006
 952.50  8.6022E-006
 953.00  9.1906E-006
 953.50  9.5566E-006
 954.00  9.0480E-006
 954.50  7.2551E-006
 955.00  5.2398E-006
 955.50  3.3673E-006
 956.00  1.3318E-006
 956.50  4.6602E-007
 957.00  7.0470E-007
 957.50  1.5180E-006
 958.00  3.6233E-006
 958.50  8.3097E-006
 959.00  1.3074E-005
 959.50  1.8150E-005
 960.00  2.2453E-005
 960.50  2.4802E-005
 961.00  2.4378E-005
 961.50  2.4469E-005
 962.00  2.2786E-005
 962.50  2.1818E-005
 963.00  2.1340E-005
 963.50  2.3101E-005
 964.00  2.0101E-005
 964.50  1.8540E-005
 965.00  1.6011E-005
 965.50  1.3949E-005
 966.00  1.1109E-005
 966.50  1.0638E-005
 967.00  9.6045E-006
 967.50  8.3203E-006
 968.00  7.7169E-006
 968.50  6.1282E-006
 969.00  6.1731E-006
 969.50  7.9860E-006
 970.00  1.1565E-005
 970.50  1.5971E-005
 971.00  1.9846E-005
 971.50  2.2681E-005
 972.00  2.4991E-005
 972.50  2.5457E-005
 973.00  2.6148E-005
 973.50  3.0764E-005
 974.00  3.7904E-005
 974.50  4.2769E-005
 975.00  4.5745E-005
 975.50  4.6950E-005
 976.00  4.4386E-005
 976.50  3.7816E-005
 977.00  3.1615E-005
 977.50  2.7713E-005
 978.00  2.4731E-005
 978.50  2.5021E-005
 979.00  3.0331E-005
 979.50  3.5193E-005
 980.00  3.8260E-005
 980.50  4.1618E-005
 981.00  3.9354E-005
 981.50  3.1267E-005
 982.00  2.9876E-005
 982.50  2.4355E-005
 983.00  1.8842E-005
 983.50  1.9256E-005
 984.00  2.1995E-005
 984.50  2.0868E-005
 985.00  2.2193E-005
 985.50  2.1402E-005
 986.00  1.8811E-005
 986.50  1.6136E-005
 987.00  1.5355E-005
 987.50  1.6474E-005
 988.00  1.6605E-005
 988.50  1.5550E-005
 989.00  1.3412E-005
 989.50  1.1698E-005
 990.00  9.1354E-006
 990.50  8.1939E-006
 991.00  9.7017E-006
 991.50  1.1144E-005
 992.00  1.0671E-005
 992.50  1.1549E-005
 993.00  1.3006E-005
 993.50  1.5252E-005
 994.00  2.0720E-005
 994.50  3.0456E-005
 995.00  3.6101E-005
 995.50  3.8506E-005
 996.00  3.6718E-005
 996.50  3.2696E-005
 997.00  2.5474E-005
 997.50  2.2749E-005
 998.00  2.5755E-005
 998.50  3.2191E-005
 999.00  4.1314E-005
 999.50  5.2906E-005
1000.00  3.7843E-005
1000.50  1.8941E-006
1001.00  0.0000E+000
1001.50  0.0000E+000
1002.00  0.0000E+000
1002.50  0.0000E+000
1003.00  0.0000E+000
1003.50  0.0000E+000
1004.00  0.0000E+000
1004.50  0.0000E+000
1005.00  0.0000E+000
1005.50  0.0000E+000
1006.00  0.0000E+000
1006.50  0.0000E+000
1007.00  0.0000E+000
1007.50  0.0000E+000
1008.00  0.0000E+000
1008.50  0.0000E+000
1009.00  0.0000E+000
1009.50  0.0000E+000
1010.00  0.0000E+000
1010.50  0.0000E+000
1011.00  0.0000E+000
1011.50  0.0000E+000
1012.00  0.0000E+000
1012.50  0.0000E+000
1013.00  0.0000E+000
1013.50  0.0000E+000
1014.00  0.0000E+000
1014.50  0.0000E+000
1015.00  0.0000E+000
1015.50  0.0000E+000
1016.00  0.0000E+000
1016.50  0.0000E+000
1017.00  0.0000E+000
1017.50  0.0000E+000
1018.00  0.0000E+000
1018.50  0.0000E+000
1019.00  0.0000E+000
1019.50  0.0000E+000
1020.00  0.0000E+000
1020.50  0.0000E+000
1021.00  0.0000E+000
1021.50  0.0000E+000
1022.00  0.0000E+000
1022.50  0.0000E+000
1023.00  0.0000E+000
1023.50  0.0000E+000
1024.00  0.0000E+000
1024.50  0.0000E+000
1025.00  0.0000E+000
1025.50  0.0000E+000
1026.00  0.0000E+000
1026.50  0.0000E+000
1027.00  0.0000E+000
1027.50  0.0000E+000
1028.00  0.0000E+000
1028.50  0.0000E+000
1029.00  0.0000E+000
1029.50  0.0000E+000
1030.00  0.0000E+000
1030.50  0.0000E+000
1031.00  0.0000E+000
1031.50  0.0000E+000
1032.00  0.0000E+000
1032.50  0.0000E+000
1033.00  0.0000E+000
1033.50  0.0000E+000
1034.00  0.0000E+000
1034.50  0.0000E+000
1035.00  0.0000E+000
1035.50  0.0000E+000
1036.00  0.0000E+000
1036.50  0.0000E+000
1037.00  0.0000E+000
1037.50  0.0000E+000
1038.00  0.0000E+000
1038.50  0.0000E+000
1039.00  0.0000E+000
1039.50  0.0000E+000
1040.00  0.0000E+000
1040.50  0.0000E+000
1041.00  0.0000E+000
1041.50  0.0000E+000
1042.00  0.0000E+000
1042.50  0.0000E+000
1043.00  0.0000E+000
1043.50  0.0000E+000
1044.00  0.0000E+000
1044.50  0.0000E+000
1045.00  0.0000E+000
1045.50  0.0000E+000
1046.00  0.0000E+000
1046.50  0.0000E+000
1047.00  0.0000E+000
1047.50  0.0000E+000
1048.00  0.0000E+000
1048.50  0.0000E+000
1049.00  0.0000E+000
1049.50  0.0000E+000
1050.00  0.0000E+000
1050.50  0.0000E+000
1051.00  0.0000E+000
1051.50  0.0000E+000
1052.00  0.0000E+000
1052.50  0.0000E+000
1053.00  0.0000E+000
1053.50  0.0000E+000
1054.00  0.0000E+000
1054.50  0.0000E+000
1055.00  0.0000E+000
1055.50  0.0000E+000
1056.00  0.0000E+000
1056.50  0.0000E+000
1057.00  0.0000E+000
1057.50  0.0000E+000
1058.00  0.0000E+000
1058.50  0.0000E+000
1059.00  0.0000E+000
1059.50  0.0000E+000
1060.00  0.0000E+000
1060.50  0.0000E+000
1061.00  0.0000E+000
1061.50  0.0000E+000
1062.00  0.0000E+000
1062.50  0.0000E+000
1063.00  0.0000E+000
1063.50  0.0000E+000
1064.00  0.0000E+000
1064.50  0.0000E+000
1065.00  0.0000E+000
1065.50  0.0000E+000
1066.00  0.0000E+000
1066.50  0.0000E+000
1067.00  0.0000E+000
1067.50  0.0000E+000
1068.00  0.0000E+000
1068.50  0.0000E+000
1069.00  0.0000E+000
1069.50  0.0000E+000
1070.00  0.0000E+000
1070.50  0.0000E+000
1071.00  0.0000E+000
1071.50  0.0000E+000
1072.00  0.0000E+000
1072.50  0.0000E+000
1073.00  0.0000E+000
1073.50  0.0000E+000
1074.00  0.0000E+000
1074.50  0.0000E+000
1075.00  0.0000E+000
1075.50  0.0000E+000
1076.00  0.0000E+000
1076.50  0.0000E+000
1077.00  0.0000E+000
1077.50  0.0000E+000
1078.00  0.0000E+000
1078.50  0.0000E+000
1079.00  0.0000E+000
1079.50  0.0000E+000
1080.00  0.0000E+000
1080.50  0.0000E+000
1081.00  0.0000E+000
1081.50  0.0000E+000
1082.00  0.0000E+000
1082.50  0.0000E+000
1083.00  0.0000E+000
1083.50  0.0000E+000
1084.00  0.0000E+000
1084.50  0.0000E+000
1085.00  0.0000E+000
1085.50  0.0000E+000
1086.00  0.0000E+000
1086.50  0.0000E+000
1087.00  0.0000E+000
1087.50  0.0000E+000
1088.00  0.0000E+000
1088.50  0.0000E+000
1089.00  0.0000E+000
1089.50  0.0000E+000
1090.00  0.0000E+000
1090.50  0.0000E+000
1091.00  0.0000E+000
1091.50  0.0000E+000
1092.00  0.0000E+000
1092.50  0.0000E+000
1093.00  0.0000E+000
1093.50  0.0000E+000
1094.00  0.0000E+000
1094.50  0.0000E+000
1095.00  0.0000E+000
1095.50  0.0000E+000
1096.00  0.0000E+000
1096.50  0.0000E+000
1097.00  0.0000E+000
1097.50  0.0000E+000
1098.00  0.0000E+000
1098.50  0.0000E+000
1099.00  0.0000E+000
1099.50  0.0000E+000
1100.00  0.0000E+000
1100.50  0.0000E+000
1101.00  0.0000E+000
1101.50  0.0000E+000
1102.00  0.0000E+000
1102.50  0.0000E+000
1103.00  0.0000E+000
1103.50  0.0000E+000
1104.00  0.0000E+000
1104.50  0.0000E+000
1105.00  0.0000E+000
1105.50  0.0000E+000
1106.00  0.0000E+000
1106.50  0.0000E+000
1107.00  0.0000E+000
1107.50  0.0000E+000
1108.00  0.0000E+000
1108.50  0.0000E+000
1109.00  0.0000E+000
1109.50  0.0000E+000
1110.00  0.0000E+000
1110.50  0.0000E+000
1111.00  0.0000E+000
1111.50  0.0000E+000
1112.00  0.0000E+000
1112.50  0.0000E+000
1113.00  0.0000E+000
1113.50  0.0000E+000
1114.00  0.0000E+000
1114.50  0.0000E+000
1115.00  0.0000E+000
1115.50  0.0000E+000
1116.00  0.0000E+000
1116.50  0.0000E+000
1117.00  0.0000E+000
1117.50  0.0000E+000
1118.00  0.0000E+000
1118.50  0.0000E+000
1119.00  0.0000E+000
1119.50  0.0000E+000
1120.00  0.0000E+000
1120.50  0.0000E+000
1121.00  0.0000E+000
1121.50  0.0000E+000
1122.00  0.0000E+000
1122.50  0.0000E+000
1123.00  0.0000E+000
1123.50  0.0000E+000
1124.00  0.0000E+000
1124.50  0.0000E+000
1125.00  0.0000E+000
1125.50  0.0000E+000
1126.00  0.0000E+000
1126.50  0.0000E+000
1127.00  0.0000E+000
1127.50  0.0000E+000
: 6
