" File: 160128_ReferenceSpectra\17.IRR
" RAD->  Wave:366.44nm  Pix:434  Val:  0.000  Time:300ms  Avg:5  Sm:1  Sg:1  Tc:off  SNAP  Xt:1  Ch:1  Xtrig wnmcal >RAD-IS6.CAL
 180.00  0.0000E+000
 180.50  0.0000E+000
 181.00  0.0000E+000
 181.50  0.0000E+000
 182.00  0.0000E+000
 182.50  0.0000E+000
 183.00  0.0000E+000
 183.50  0.0000E+000
 184.00  0.0000E+000
 184.50  0.0000E+000
 185.00  0.0000E+000
 185.50  0.0000E+000
 186.00  0.0000E+000
 186.50  0.0000E+000
 187.00  0.0000E+000
 187.50  0.0000E+000
 188.00  0.0000E+000
 188.50  0.0000E+000
 189.00  0.0000E+000
 189.50  0.0000E+000
 190.00  0.0000E+000
 190.50  0.0000E+000
 191.00  0.0000E+000
 191.50  0.0000E+000
 192.00  0.0000E+000
 192.50  0.0000E+000
 193.00  0.0000E+000
 193.50  0.0000E+000
 194.00  0.0000E+000
 194.50  0.0000E+000
 195.00  0.0000E+000
 195.50  0.0000E+000
 196.00  0.0000E+000
 196.50  0.0000E+000
 197.00  0.0000E+000
 197.50  0.0000E+000
 198.00  0.0000E+000
 198.50  0.0000E+000
 199.00  0.0000E+000
 199.50  0.0000E+000
 200.00  0.0000E+000
 200.50  0.0000E+000
 201.00  0.0000E+000
 201.50  0.0000E+000
 202.00  0.0000E+000
 202.50  0.0000E+000
 203.00  0.0000E+000
 203.50  0.0000E+000
 204.00  0.0000E+000
 204.50  0.0000E+000
 205.00  0.0000E+000
 205.50  0.0000E+000
 206.00  0.0000E+000
 206.50  0.0000E+000
 207.00  0.0000E+000
 207.50  0.0000E+000
 208.00  0.0000E+000
 208.50  0.0000E+000
 209.00  0.0000E+000
 209.50  0.0000E+000
 210.00  0.0000E+000
 210.50  0.0000E+000
 211.00  0.0000E+000
 211.50  0.0000E+000
 212.00  0.0000E+000
 212.50  0.0000E+000
 213.00  0.0000E+000
 213.50  0.0000E+000
 214.00  0.0000E+000
 214.50  0.0000E+000
 215.00  0.0000E+000
 215.50  0.0000E+000
 216.00  0.0000E+000
 216.50  0.0000E+000
 217.00  0.0000E+000
 217.50  0.0000E+000
 218.00  0.0000E+000
 218.50  0.0000E+000
 219.00  0.0000E+000
 219.50  0.0000E+000
 220.00  0.0000E+000
 220.50  0.0000E+000
 221.00  0.0000E+000
 221.50  0.0000E+000
 222.00  0.0000E+000
 222.50  0.0000E+000
 223.00  0.0000E+000
 223.50  0.0000E+000
 224.00  0.0000E+000
 224.50  0.0000E+000
 225.00  0.0000E+000
 225.50  0.0000E+000
 226.00  0.0000E+000
 226.50  0.0000E+000
 227.00  0.0000E+000
 227.50  0.0000E+000
 228.00  0.0000E+000
 228.50  0.0000E+000
 229.00  0.0000E+000
 229.50  0.0000E+000
 230.00  0.0000E+000
 230.50  0.0000E+000
 231.00  0.0000E+000
 231.50  0.0000E+000
 232.00  0.0000E+000
 232.50  0.0000E+000
 233.00  0.0000E+000
 233.50  0.0000E+000
 234.00  0.0000E+000
 234.50  0.0000E+000
 235.00  0.0000E+000
 235.50  0.0000E+000
 236.00  0.0000E+000
 236.50  0.0000E+000
 237.00  0.0000E+000
 237.50  0.0000E+000
 238.00  0.0000E+000
 238.50  0.0000E+000
 239.00  0.0000E+000
 239.50  0.0000E+000
 240.00  0.0000E+000
 240.50  0.0000E+000
 241.00  0.0000E+000
 241.50  0.0000E+000
 242.00  0.0000E+000
 242.50  0.0000E+000
 243.00  0.0000E+000
 243.50  0.0000E+000
 244.00  0.0000E+000
 244.50  0.0000E+000
 245.00  0.0000E+000
 245.50  0.0000E+000
 246.00  0.0000E+000
 246.50  0.0000E+000
 247.00  0.0000E+000
 247.50  0.0000E+000
 248.00  0.0000E+000
 248.50  0.0000E+000
 249.00  0.0000E+000
 249.50  0.0000E+000
 250.00  0.0000E+000
 250.50  0.0000E+000
 251.00  0.0000E+000
 251.50  0.0000E+000
 252.00  0.0000E+000
 252.50  0.0000E+000
 253.00  0.0000E+000
 253.50  0.0000E+000
 254.00  0.0000E+000
 254.50  0.0000E+000
 255.00  0.0000E+000
 255.50  0.0000E+000
 256.00  0.0000E+000
 256.50  0.0000E+000
 257.00  0.0000E+000
 257.50  0.0000E+000
 258.00  0.0000E+000
 258.50  0.0000E+000
 259.00  0.0000E+000
 259.50  0.0000E+000
 260.00  0.0000E+000
 260.50  0.0000E+000
 261.00  0.0000E+000
 261.50  0.0000E+000
 262.00  0.0000E+000
 262.50  0.0000E+000
 263.00  0.0000E+000
 263.50  0.0000E+000
 264.00  0.0000E+000
 264.50  0.0000E+000
 265.00  0.0000E+000
 265.50  0.0000E+000
 266.00  0.0000E+000
 266.50  0.0000E+000
 267.00  0.0000E+000
 267.50  0.0000E+000
 268.00  0.0000E+000
 268.50  0.0000E+000
 269.00  0.0000E+000
 269.50  0.0000E+000
 270.00  0.0000E+000
 270.50  0.0000E+000
 271.00  0.0000E+000
 271.50  0.0000E+000
 272.00  0.0000E+000
 272.50  0.0000E+000
 273.00  0.0000E+000
 273.50  0.0000E+000
 274.00  0.0000E+000
 274.50  0.0000E+000
 275.00  0.0000E+000
 275.50  0.0000E+000
 276.00  0.0000E+000
 276.50  0.0000E+000
 277.00  0.0000E+000
 277.50  0.0000E+000
 278.00  0.0000E+000
 278.50  0.0000E+000
 279.00  0.0000E+000
 279.50  0.0000E+000
 280.00  0.0000E+000
 280.50  0.0000E+000
 281.00  0.0000E+000
 281.50  0.0000E+000
 282.00  0.0000E+000
 282.50  0.0000E+000
 283.00  0.0000E+000
 283.50  0.0000E+000
 284.00  0.0000E+000
 284.50  0.0000E+000
 285.00  0.0000E+000
 285.50  0.0000E+000
 286.00  0.0000E+000
 286.50  0.0000E+000
 287.00  0.0000E+000
 287.50  0.0000E+000
 288.00  0.0000E+000
 288.50  0.0000E+000
 289.00  0.0000E+000
 289.50  0.0000E+000
 290.00  0.0000E+000
 290.50  0.0000E+000
 291.00  0.0000E+000
 291.50  0.0000E+000
 292.00  0.0000E+000
 292.50  0.0000E+000
 293.00  0.0000E+000
 293.50  0.0000E+000
 294.00  0.0000E+000
 294.50  0.0000E+000
 295.00  0.0000E+000
 295.50  0.0000E+000
 296.00  0.0000E+000
 296.50  0.0000E+000
 297.00  0.0000E+000
 297.50  0.0000E+000
 298.00  0.0000E+000
 298.50  0.0000E+000
 299.00  0.0000E+000
 299.50  0.0000E+000
 300.00  0.0000E+000
 300.50  0.0000E+000
 301.00  0.0000E+000
 301.50  0.0000E+000
 302.00  0.0000E+000
 302.50  0.0000E+000
 303.00  0.0000E+000
 303.50  0.0000E+000
 304.00  0.0000E+000
 304.50  0.0000E+000
 305.00  0.0000E+000
 305.50  0.0000E+000
 306.00  0.0000E+000
 306.50  0.0000E+000
 307.00  0.0000E+000
 307.50  0.0000E+000
 308.00  0.0000E+000
 308.50  0.0000E+000
 309.00  0.0000E+000
 309.50  0.0000E+000
 310.00  0.0000E+000
 310.50  0.0000E+000
 311.00  0.0000E+000
 311.50  0.0000E+000
 312.00  0.0000E+000
 312.50  0.0000E+000
 313.00  0.0000E+000
 313.50  0.0000E+000
 314.00  0.0000E+000
 314.50  0.0000E+000
 315.00  0.0000E+000
 315.50  0.0000E+000
 316.00  0.0000E+000
 316.50  0.0000E+000
 317.00  0.0000E+000
 317.50  0.0000E+000
 318.00  0.0000E+000
 318.50  0.0000E+000
 319.00  0.0000E+000
 319.50  0.0000E+000
 320.00  0.0000E+000
 320.50  0.0000E+000
 321.00  0.0000E+000
 321.50  0.0000E+000
 322.00  0.0000E+000
 322.50  0.0000E+000
 323.00  0.0000E+000
 323.50  0.0000E+000
 324.00  0.0000E+000
 324.50  0.0000E+000
 325.00  0.0000E+000
 325.50  0.0000E+000
 326.00  0.0000E+000
 326.50  0.0000E+000
 327.00  0.0000E+000
 327.50  0.0000E+000
 328.00  0.0000E+000
 328.50  0.0000E+000
 329.00  0.0000E+000
 329.50  0.0000E+000
 330.00  0.0000E+000
 330.50  0.0000E+000
 331.00  0.0000E+000
 331.50  0.0000E+000
 332.00  0.0000E+000
 332.50  0.0000E+000
 333.00  0.0000E+000
 333.50  0.0000E+000
 334.00  0.0000E+000
 334.50  0.0000E+000
 335.00  0.0000E+000
 335.50  0.0000E+000
 336.00  0.0000E+000
 336.50  0.0000E+000
 337.00  0.0000E+000
 337.50  0.0000E+000
 338.00  0.0000E+000
 338.50  0.0000E+000
 339.00  0.0000E+000
 339.50  0.0000E+000
 340.00  0.0000E+000
 340.50  0.0000E+000
 341.00  0.0000E+000
 341.50  0.0000E+000
 342.00  0.0000E+000
 342.50  0.0000E+000
 343.00  0.0000E+000
 343.50  0.0000E+000
 344.00  0.0000E+000
 344.50  0.0000E+000
 345.00  0.0000E+000
 345.50  0.0000E+000
 346.00  0.0000E+000
 346.50  0.0000E+000
 347.00  0.0000E+000
 347.50  0.0000E+000
 348.00  0.0000E+000
 348.50  0.0000E+000
 349.00  0.0000E+000
 349.50  0.0000E+000
 350.00  0.0000E+000
 350.50  0.0000E+000
 351.00  0.0000E+000
 351.50  0.0000E+000
 352.00  0.0000E+000
 352.50  0.0000E+000
 353.00  0.0000E+000
 353.50  0.0000E+000
 354.00  0.0000E+000
 354.50  0.0000E+000
 355.00  0.0000E+000
 355.50  0.0000E+000
 356.00  0.0000E+000
 356.50  0.0000E+000
 357.00  0.0000E+000
 357.50  0.0000E+000
 358.00  0.0000E+000
 358.50  0.0000E+000
 359.00  0.0000E+000
 359.50  1.4011E-009
 360.00  3.5277E-008
 360.50  7.6588E-008
 361.00  1.0490E-007
 361.50  1.3100E-007
 362.00  1.6714E-007
 362.50  1.8526E-007
 363.00  2.1797E-007
 363.50  2.4226E-007
 364.00  2.3826E-007
 364.50  2.1309E-007
 365.00  1.7907E-007
 365.50  1.4686E-007
 366.00  1.0788E-007
 366.50  6.5293E-008
 367.00  5.0262E-008
 367.50  2.7739E-008
 368.00  1.2085E-008
 368.50  2.5202E-008
 369.00  3.9003E-008
 369.50  6.9415E-008
 370.00  9.4900E-008
 370.50  9.3072E-008
 371.00  6.3295E-008
 371.50  2.8295E-008
 372.00  0.0000E+000
 372.50  0.0000E+000
 373.00  0.0000E+000
 373.50  9.7007E-009
 374.00  7.0945E-008
 374.50  7.5390E-008
 375.00  8.5137E-008
 375.50  8.0851E-008
 376.00  4.9174E-008
 376.50  2.2620E-008
 377.00  2.1114E-008
 377.50  2.2471E-008
 378.00  1.8584E-008
 378.50  4.2141E-008
 379.00  5.5496E-008
 379.50  8.6494E-008
 380.00  9.8969E-008
 380.50  8.8244E-008
 381.00  7.1921E-008
 381.50  4.2865E-008
 382.00  7.7076E-009
 382.50  1.7593E-008
 383.00  4.6303E-008
 383.50  8.4870E-008
 384.00  1.3871E-007
 384.50  1.4271E-007
 385.00  9.2869E-008
 385.50  4.7845E-008
 386.00  8.7959E-009
 386.50  0.0000E+000
 387.00  0.0000E+000
 387.50  0.0000E+000
 388.00  0.0000E+000
 388.50  8.3373E-009
 389.00  2.9075E-008
 389.50  1.9728E-008
 390.00  2.6090E-009
 390.50  0.0000E+000
 391.00  1.3158E-008
 391.50  1.5799E-008
 392.00  4.7492E-008
 392.50  9.3914E-008
 393.00  1.0412E-007
 393.50  9.8360E-008
 394.00  1.3953E-007
 394.50  1.8124E-007
 395.00  2.0202E-007
 395.50  2.8297E-007
 396.00  3.0988E-007
 396.50  3.3435E-007
 397.00  3.2010E-007
 397.50  2.8304E-007
 398.00  2.5606E-007
 398.50  2.1987E-007
 399.00  2.0201E-007
 399.50  2.2777E-007
 400.00  2.3488E-007
 400.50  2.4631E-007
 401.00  2.7764E-007
 401.50  3.0394E-007
 402.00  3.0806E-007
 402.50  3.1204E-007
 403.00  3.0871E-007
 403.50  2.5644E-007
 404.00  2.0626E-007
 404.50  1.5097E-007
 405.00  8.6019E-008
 405.50  2.1688E-008
 406.00  0.0000E+000
 406.50  0.0000E+000
 407.00  0.0000E+000
 407.50  0.0000E+000
 408.00  0.0000E+000
 408.50  3.0291E-009
 409.00  7.4831E-009
 409.50  4.0625E-008
 410.00  6.8088E-008
 410.50  6.0810E-008
 411.00  2.9100E-008
 411.50  4.2290E-009
 412.00  0.0000E+000
 412.50  0.0000E+000
 413.00  4.0954E-009
 413.50  2.7986E-009
 414.00  1.0870E-009
 414.50  1.3043E-008
 415.00  5.5619E-008
 415.50  1.1538E-007
 416.00  1.8991E-007
 416.50  2.6871E-007
 417.00  3.0519E-007
 417.50  2.7174E-007
 418.00  2.3551E-007
 418.50  2.2953E-007
 419.00  1.8295E-007
 419.50  1.3521E-007
 420.00  9.4789E-008
 420.50  5.6319E-008
 421.00  1.7543E-008
 421.50  2.1753E-009
 422.00  1.9352E-008
 422.50  5.2708E-008
 423.00  9.3259E-008
 423.50  1.3407E-007
 424.00  1.5885E-007
 424.50  1.9975E-007
 425.00  2.3492E-007
 425.50  2.3329E-007
 426.00  2.1347E-007
 426.50  2.1769E-007
 427.00  1.8137E-007
 427.50  1.7420E-007
 428.00  1.4749E-007
 428.50  1.4725E-007
 429.00  1.3271E-007
 429.50  1.0501E-007
 430.00  9.5778E-008
 430.50  8.2585E-008
 431.00  1.1836E-007
 431.50  1.3050E-007
 432.00  2.0387E-007
 432.50  2.4716E-007
 433.00  2.5564E-007
 433.50  2.4722E-007
 434.00  2.0355E-007
 434.50  1.7193E-007
 435.00  2.0905E-007
 435.50  2.0626E-007
 436.00  1.9804E-007
 436.50  1.8824E-007
 437.00  1.3863E-007
 437.50  9.5872E-008
 438.00  7.5358E-008
 438.50  5.6797E-008
 439.00  4.4919E-008
 439.50  1.7916E-008
 440.00  1.0967E-009
 440.50  0.0000E+000
 441.00  0.0000E+000
 441.50  0.0000E+000
 442.00  4.2715E-009
 442.50  4.0265E-008
 443.00  9.4432E-008
 443.50  1.0849E-007
 444.00  8.0785E-008
 444.50  7.4857E-008
 445.00  4.9734E-008
 445.50  1.2380E-008
 446.00  1.3679E-008
 446.50  3.1790E-008
 447.00  3.0797E-008
 447.50  4.0222E-008
 448.00  3.8906E-008
 448.50  1.2739E-008
 449.00  8.1661E-009
 449.50  5.5280E-010
 450.00  2.7177E-008
 450.50  5.2843E-008
 451.00  9.1715E-008
 451.50  1.1459E-007
 452.00  1.2973E-007
 452.50  1.2905E-007
 453.00  1.2765E-007
 453.50  1.1150E-007
 454.00  1.2262E-007
 454.50  1.2143E-007
 455.00  1.0736E-007
 455.50  1.0639E-007
 456.00  1.0814E-007
 456.50  7.1426E-008
 457.00  6.3370E-008
 457.50  6.7257E-008
 458.00  6.4081E-008
 458.50  9.6310E-008
 459.00  1.4229E-007
 459.50  1.8306E-007
 460.00  2.0486E-007
 460.50  2.0220E-007
 461.00  1.9236E-007
 461.50  2.0161E-007
 462.00  2.1068E-007
 462.50  2.1745E-007
 463.00  2.1807E-007
 463.50  2.0102E-007
 464.00  1.7486E-007
 464.50  1.6055E-007
 465.00  1.5578E-007
 465.50  1.6390E-007
 466.00  1.7668E-007
 466.50  1.8756E-007
 467.00  1.9729E-007
 467.50  2.0278E-007
 468.00  1.9231E-007
 468.50  1.7176E-007
 469.00  1.2954E-007
 469.50  1.0276E-007
 470.00  7.2396E-008
 470.50  6.8019E-008
 471.00  7.3454E-008
 471.50  7.3336E-008
 472.00  7.6890E-008
 472.50  7.0801E-008
 473.00  5.2811E-008
 473.50  5.2300E-008
 474.00  6.1436E-008
 474.50  8.0563E-008
 475.00  9.1976E-008
 475.50  9.9407E-008
 476.00  9.9981E-008
 476.50  8.8314E-008
 477.00  7.7205E-008
 477.50  8.8926E-008
 478.00  1.2907E-007
 478.50  1.5707E-007
 479.00  1.5925E-007
 479.50  1.5559E-007
 480.00  1.4442E-007
 480.50  1.3059E-007
 481.00  1.2944E-007
 481.50  1.4138E-007
 482.00  1.4286E-007
 482.50  1.3062E-007
 483.00  1.2087E-007
 483.50  1.2422E-007
 484.00  1.3575E-007
 484.50  1.3745E-007
 485.00  1.5350E-007
 485.50  1.7749E-007
 486.00  2.0295E-007
 486.50  2.4032E-007
 487.00  2.5936E-007
 487.50  2.5444E-007
 488.00  2.5341E-007
 488.50  2.1477E-007
 489.00  1.8818E-007
 489.50  1.7126E-007
 490.00  1.6371E-007
 490.50  1.6732E-007
 491.00  1.8938E-007
 491.50  2.1252E-007
 492.00  2.1656E-007
 492.50  2.1614E-007
 493.00  2.0200E-007
 493.50  1.9569E-007
 494.00  1.8577E-007
 494.50  2.0439E-007
 495.00  2.0651E-007
 495.50  2.2718E-007
 496.00  2.3226E-007
 496.50  2.1871E-007
 497.00  1.9151E-007
 497.50  1.5317E-007
 498.00  1.0454E-007
 498.50  5.3220E-008
 499.00  3.1867E-008
 499.50  1.0918E-008
 500.00  5.9175E-009
 500.50  1.0970E-010
 501.00  1.7080E-009
 501.50  1.7876E-008
 502.00  3.5728E-008
 502.50  3.9536E-008
 503.00  6.9355E-008
 503.50  1.2276E-007
 504.00  1.5033E-007
 504.50  1.6094E-007
 505.00  1.7768E-007
 505.50  1.6352E-007
 506.00  1.3973E-007
 506.50  1.3304E-007
 507.00  1.3850E-007
 507.50  1.5099E-007
 508.00  1.7979E-007
 508.50  1.8175E-007
 509.00  1.7539E-007
 509.50  1.6638E-007
 510.00  1.6351E-007
 510.50  1.3206E-007
 511.00  9.7899E-008
 511.50  8.2065E-008
 512.00  5.8433E-008
 512.50  2.5225E-008
 513.00  1.5453E-008
 513.50  2.1918E-008
 514.00  2.4713E-008
 514.50  3.6536E-008
 515.00  5.2723E-008
 515.50  7.5687E-008
 516.00  9.5601E-008
 516.50  9.8770E-008
 517.00  1.1830E-007
 517.50  1.4184E-007
 518.00  1.3923E-007
 518.50  1.4616E-007
 519.00  1.4179E-007
 519.50  1.7119E-007
 520.00  2.1030E-007
 520.50  2.8353E-007
 521.00  3.5778E-007
 521.50  4.0029E-007
 522.00  3.7868E-007
 522.50  3.4067E-007
 523.00  3.0431E-007
 523.50  2.7911E-007
 524.00  2.6577E-007
 524.50  2.7552E-007
 525.00  3.0848E-007
 525.50  2.8489E-007
 526.00  2.6435E-007
 526.50  2.6939E-007
 527.00  2.8851E-007
 527.50  3.1254E-007
 528.00  3.5882E-007
 528.50  4.0174E-007
 529.00  4.0976E-007
 529.50  3.7034E-007
 530.00  3.2857E-007
 530.50  2.9256E-007
 531.00  2.7119E-007
 531.50  2.8384E-007
 532.00  2.9998E-007
 532.50  2.9945E-007
 533.00  2.8960E-007
 533.50  2.7884E-007
 534.00  2.8093E-007
 534.50  2.8541E-007
 535.00  2.9930E-007
 535.50  3.1971E-007
 536.00  3.2574E-007
 536.50  3.1513E-007
 537.00  3.2827E-007
 537.50  3.5965E-007
 538.00  3.7620E-007
 538.50  3.7487E-007
 539.00  3.9146E-007
 539.50  3.8513E-007
 540.00  3.1955E-007
 540.50  2.9572E-007
 541.00  2.5954E-007
 541.50  2.4259E-007
 542.00  2.1301E-007
 542.50  2.1983E-007
 543.00  2.3888E-007
 543.50  2.8503E-007
 544.00  3.1938E-007
 544.50  3.3120E-007
 545.00  3.3761E-007
 545.50  3.1390E-007
 546.00  2.8528E-007
 546.50  2.8848E-007
 547.00  3.2435E-007
 547.50  3.8045E-007
 548.00  4.3208E-007
 548.50  4.6211E-007
 549.00  4.8489E-007
 549.50  4.8159E-007
 550.00  4.9203E-007
 550.50  5.4620E-007
 551.00  5.4779E-007
 551.50  5.6136E-007
 552.00  6.2667E-007
 552.50  6.5690E-007
 553.00  6.4265E-007
 553.50  6.4910E-007
 554.00  6.2649E-007
 554.50  5.4780E-007
 555.00  4.6720E-007
 555.50  4.4568E-007
 556.00  4.5976E-007
 556.50  5.0144E-007
 557.00  5.5437E-007
 557.50  5.8801E-007
 558.00  6.0689E-007
 558.50  5.8409E-007
 559.00  5.4353E-007
 559.50  4.7883E-007
 560.00  4.5320E-007
 560.50  4.5093E-007
 561.00  4.4239E-007
 561.50  4.5636E-007
 562.00  4.8571E-007
 562.50  4.3466E-007
 563.00  4.1611E-007
 563.50  4.5561E-007
 564.00  5.0304E-007
 564.50  5.8979E-007
 565.00  7.2367E-007
 565.50  7.9812E-007
 566.00  8.3902E-007
 566.50  8.2164E-007
 567.00  7.5767E-007
 567.50  6.9401E-007
 568.00  6.0610E-007
 568.50  5.4957E-007
 569.00  5.2498E-007
 569.50  5.5736E-007
 570.00  6.0198E-007
 570.50  6.5554E-007
 571.00  7.0061E-007
 571.50  7.5715E-007
 572.00  7.6910E-007
 572.50  8.3234E-007
 573.00  9.1993E-007
 573.50  9.7281E-007
 574.00  1.0506E-006
 574.50  1.0841E-006
 575.00  1.0578E-006
 575.50  1.0507E-006
 576.00  1.0564E-006
 576.50  1.0932E-006
 577.00  1.1435E-006
 577.50  1.1740E-006
 578.00  1.1818E-006
 578.50  1.1604E-006
 579.00  1.1300E-006
 579.50  1.0976E-006
 580.00  1.0651E-006
 580.50  1.0925E-006
 581.00  1.1958E-006
 581.50  1.2028E-006
 582.00  1.3010E-006
 582.50  1.3557E-006
 583.00  1.3573E-006
 583.50  1.3733E-006
 584.00  1.3731E-006
 584.50  1.2974E-006
 585.00  1.2608E-006
 585.50  1.2327E-006
 586.00  1.2160E-006
 586.50  1.2451E-006
 587.00  1.3272E-006
 587.50  1.3895E-006
 588.00  1.4884E-006
 588.50  1.5445E-006
 589.00  1.6449E-006
 589.50  1.7586E-006
 590.00  1.8265E-006
 590.50  1.8047E-006
 591.00  1.8404E-006
 591.50  1.8806E-006
 592.00  1.9303E-006
 592.50  2.0895E-006
 593.00  2.2658E-006
 593.50  2.3621E-006
 594.00  2.4123E-006
 594.50  2.3938E-006
 595.00  2.3643E-006
 595.50  2.3608E-006
 596.00  2.3679E-006
 596.50  2.3615E-006
 597.00  2.3472E-006
 597.50  2.3332E-006
 598.00  2.2839E-006
 598.50  2.1979E-006
 599.00  2.1520E-006
 599.50  2.0879E-006
 600.00  2.0257E-006
 600.50  2.0509E-006
 601.00  2.1625E-006
 601.50  2.2435E-006
 602.00  2.3917E-006
 602.50  2.5774E-006
 603.00  2.6928E-006
 603.50  2.7928E-006
 604.00  2.8643E-006
 604.50  2.8693E-006
 605.00  2.8335E-006
 605.50  2.8450E-006
 606.00  2.8502E-006
 606.50  2.8683E-006
 607.00  2.9500E-006
 607.50  3.0152E-006
 608.00  3.0833E-006
 608.50  3.1819E-006
 609.00  3.3171E-006
 609.50  3.4573E-006
 610.00  3.5289E-006
 610.50  3.5948E-006
 611.00  3.6559E-006
 611.50  3.6475E-006
 612.00  3.6632E-006
 612.50  3.7327E-006
 613.00  3.8877E-006
 613.50  4.1471E-006
 614.00  4.3376E-006
 614.50  4.4123E-006
 615.00  4.4596E-006
 615.50  4.4109E-006
 616.00  4.2724E-006
 616.50  4.3022E-006
 617.00  4.4070E-006
 617.50  4.5518E-006
 618.00  4.6651E-006
 618.50  4.9572E-006
 619.00  5.1854E-006
 619.50  5.3756E-006
 620.00  5.4941E-006
 620.50  5.5491E-006
 621.00  5.5156E-006
 621.50  5.4763E-006
 622.00  5.4927E-006
 622.50  5.5016E-006
 623.00  5.4350E-006
 623.50  5.4547E-006
 624.00  5.4454E-006
 624.50  5.4324E-006
 625.00  5.5135E-006
 625.50  5.6709E-006
 626.00  5.8291E-006
 626.50  6.0769E-006
 627.00  6.3852E-006
 627.50  6.6992E-006
 628.00  6.9567E-006
 628.50  7.1617E-006
 629.00  7.2883E-006
 629.50  7.3810E-006
 630.00  7.3939E-006
 630.50  7.4547E-006
 631.00  7.5221E-006
 631.50  7.6696E-006
 632.00  7.7623E-006
 632.50  7.9131E-006
 633.00  8.0557E-006
 633.50  8.1555E-006
 634.00  8.2924E-006
 634.50  8.5623E-006
 635.00  8.7799E-006
 635.50  8.9844E-006
 636.00  9.2290E-006
 636.50  9.4092E-006
 637.00  9.5710E-006
 637.50  9.9671E-006
 638.00  1.0422E-005
 638.50  1.0945E-005
 639.00  1.1463E-005
 639.50  1.1910E-005
 640.00  1.2319E-005
 640.50  1.2700E-005
 641.00  1.3073E-005
 641.50  1.3543E-005
 642.00  1.4107E-005
 642.50  1.4728E-005
 643.00  1.5398E-005
 643.50  1.6136E-005
 644.00  1.6901E-005
 644.50  1.7817E-005
 645.00  1.8818E-005
 645.50  1.9964E-005
 646.00  2.1165E-005
 646.50  2.2367E-005
 647.00  2.3671E-005
 647.50  2.5030E-005
 648.00  2.6385E-005
 648.50  2.7854E-005
 649.00  2.9483E-005
 649.50  3.1170E-005
 650.00  3.3221E-005
 650.50  3.5487E-005
 651.00  3.7901E-005
 651.50  4.0231E-005
 652.00  4.2681E-005
 652.50  4.5054E-005
 653.00  4.7421E-005
 653.50  4.9854E-005
 654.00  5.2397E-005
 654.50  5.5013E-005
 655.00  5.7988E-005
 655.50  6.1280E-005
 656.00  6.5001E-005
 656.50  6.8720E-005
 657.00  7.2636E-005
 657.50  7.6257E-005
 658.00  7.9963E-005
 658.50  8.3778E-005
 659.00  8.8013E-005
 659.50  9.2197E-005
 660.00  9.6489E-005
 660.50  1.0112E-004
 661.00  1.0589E-004
 661.50  1.1073E-004
 662.00  1.1600E-004
 662.50  1.2160E-004
 663.00  1.2724E-004
 663.50  1.3295E-004
 664.00  1.3913E-004
 664.50  1.4566E-004
 665.00  1.5250E-004
 665.50  1.5977E-004
 666.00  1.6753E-004
 666.50  1.7564E-004
 667.00  1.8407E-004
 667.50  1.9281E-004
 668.00  2.0191E-004
 668.50  2.1130E-004
 669.00  2.2111E-004
 669.50  2.3145E-004
 670.00  2.4237E-004
 670.50  2.5361E-004
 671.00  2.6576E-004
 671.50  2.7848E-004
 672.00  2.9177E-004
 672.50  3.0559E-004
 673.00  3.1980E-004
 673.50  3.3429E-004
 674.00  3.4908E-004
 674.50  3.6421E-004
 675.00  3.7974E-004
 675.50  3.9599E-004
 676.00  4.1308E-004
 676.50  4.3101E-004
 677.00  4.4986E-004
 677.50  4.6930E-004
 678.00  4.8887E-004
 678.50  5.0891E-004
 679.00  5.2932E-004
 679.50  5.5071E-004
 680.00  5.7361E-004
 680.50  5.9800E-004
 681.00  6.2368E-004
 681.50  6.5078E-004
 682.00  6.7919E-004
 682.50  7.0889E-004
 683.00  7.3987E-004
 683.50  7.7209E-004
 684.00  8.0538E-004
 684.50  8.3961E-004
 685.00  8.7509E-004
 685.50  9.1201E-004
 686.00  9.5056E-004
 686.50  9.9120E-004
 687.00  1.0340E-003
 687.50  1.0790E-003
 688.00  1.1264E-003
 688.50  1.1764E-003
 689.00  1.2288E-003
 689.50  1.2839E-003
 690.00  1.3418E-003
 690.50  1.4028E-003
 691.00  1.4664E-003
 691.50  1.5327E-003
 692.00  1.6011E-003
 692.50  1.6707E-003
 693.00  1.7413E-003
 693.50  1.8134E-003
 694.00  1.8870E-003
 694.50  1.9622E-003
 695.00  2.0399E-003
 695.50  2.1200E-003
 696.00  2.2020E-003
 696.50  2.2852E-003
 697.00  2.3685E-003
 697.50  2.4508E-003
 698.00  2.5310E-003
 698.50  2.6080E-003
 699.00  2.6800E-003
 699.50  2.7458E-003
 700.00  2.8046E-003
 700.50  2.8552E-003
 701.00  2.8990E-003
 701.50  2.9368E-003
 702.00  2.9676E-003
 702.50  2.9894E-003
 703.00  3.0006E-003
 703.50  2.9995E-003
 704.00  2.9854E-003
 704.50  2.9593E-003
 705.00  2.9230E-003
 705.50  2.8784E-003
 706.00  2.8262E-003
 706.50  2.7673E-003
 707.00  2.7028E-003
 707.50  2.6334E-003
 708.00  2.5591E-003
 708.50  2.4819E-003
 709.00  2.4029E-003
 709.50  2.3223E-003
 710.00  2.2411E-003
 710.50  2.1596E-003
 711.00  2.0778E-003
 711.50  1.9967E-003
 712.00  1.9162E-003
 712.50  1.8363E-003
 713.00  1.7567E-003
 713.50  1.6770E-003
 714.00  1.5976E-003
 714.50  1.5190E-003
 715.00  1.4422E-003
 715.50  1.3679E-003
 716.00  1.2966E-003
 716.50  1.2285E-003
 717.00  1.1634E-003
 717.50  1.1004E-003
 718.00  1.0394E-003
 718.50  9.7998E-004
 719.00  9.2266E-004
 719.50  8.6808E-004
 720.00  8.1715E-004
 720.50  7.6977E-004
 721.00  7.2591E-004
 721.50  6.8543E-004
 722.00  6.4743E-004
 722.50  6.1100E-004
 723.00  5.7643E-004
 723.50  5.4340E-004
 724.00  5.1171E-004
 724.50  4.8187E-004
 725.00  4.5419E-004
 725.50  4.2833E-004
 726.00  4.0460E-004
 726.50  3.8302E-004
 727.00  3.6328E-004
 727.50  3.4519E-004
 728.00  3.2839E-004
 728.50  3.1252E-004
 729.00  2.9739E-004
 729.50  2.8298E-004
 730.00  2.6945E-004
 730.50  2.5710E-004
 731.00  2.4544E-004
 731.50  2.3458E-004
 732.00  2.2409E-004
 732.50  2.1416E-004
 733.00  2.0466E-004
 733.50  1.9608E-004
 734.00  1.8809E-004
 734.50  1.8082E-004
 735.00  1.7395E-004
 735.50  1.6719E-004
 736.00  1.6082E-004
 736.50  1.5487E-004
 737.00  1.4932E-004
 737.50  1.4412E-004
 738.00  1.3924E-004
 738.50  1.3429E-004
 739.00  1.2979E-004
 739.50  1.2544E-004
 740.00  1.2127E-004
 740.50  1.1731E-004
 741.00  1.1359E-004
 741.50  1.0985E-004
 742.00  1.0632E-004
 742.50  1.0297E-004
 743.00  9.9859E-005
 743.50  9.7158E-005
 744.00  9.4890E-005
 744.50  9.2771E-005
 745.00  9.0860E-005
 745.50  8.9048E-005
 746.00  8.7279E-005
 746.50  8.5240E-005
 747.00  8.3262E-005
 747.50  8.1414E-005
 748.00  7.9476E-005
 748.50  7.7761E-005
 749.00  7.6313E-005
 749.50  7.4909E-005
 750.00  7.3423E-005
 750.50  7.1920E-005
 751.00  7.0327E-005
 751.50  6.8905E-005
 752.00  6.7592E-005
 752.50  6.6401E-005
 753.00  6.5363E-005
 753.50  6.4262E-005
 754.00  6.3280E-005
 754.50  6.2296E-005
 755.00  6.1412E-005
 755.50  6.0517E-005
 756.00  5.9859E-005
 756.50  5.8836E-005
 757.00  5.7954E-005
 757.50  5.7011E-005
 758.00  5.5958E-005
 758.50  5.4790E-005
 759.00  5.3774E-005
 759.50  5.2769E-005
 760.00  5.1799E-005
 760.50  5.0864E-005
 761.00  5.0068E-005
 761.50  4.9423E-005
 762.00  4.8747E-005
 762.50  4.7939E-005
 763.00  4.7057E-005
 763.50  4.6004E-005
 764.00  4.4923E-005
 764.50  4.3662E-005
 765.00  4.2609E-005
 765.50  4.1623E-005
 766.00  4.1017E-005
 766.50  4.0399E-005
 767.00  3.9902E-005
 767.50  3.9644E-005
 768.00  3.9292E-005
 768.50  3.8678E-005
 769.00  3.8261E-005
 769.50  3.8017E-005
 770.00  3.7266E-005
 770.50  3.6258E-005
 771.00  3.5605E-005
 771.50  3.5011E-005
 772.00  3.4007E-005
 772.50  3.3609E-005
 773.00  3.3179E-005
 773.50  3.2266E-005
 774.00  3.1118E-005
 774.50  3.0231E-005
 775.00  2.9201E-005
 775.50  2.8278E-005
 776.00  2.7584E-005
 776.50  2.7235E-005
 777.00  2.7088E-005
 777.50  2.7101E-005
 778.00  2.7213E-005
 778.50  2.7159E-005
 779.00  2.6877E-005
 779.50  2.6219E-005
 780.00  2.5272E-005
 780.50  2.4601E-005
 781.00  2.4310E-005
 781.50  2.3729E-005
 782.00  2.3829E-005
 782.50  2.4129E-005
 783.00  2.3972E-005
 783.50  2.3199E-005
 784.00  2.2633E-005
 784.50  2.2203E-005
 785.00  2.1764E-005
 785.50  2.1179E-005
 786.00  2.0939E-005
 786.50  2.0876E-005
 787.00  2.0412E-005
 787.50  2.0086E-005
 788.00  2.0061E-005
 788.50  1.9875E-005
 789.00  1.9501E-005
 789.50  1.8973E-005
 790.00  1.8343E-005
 790.50  1.8168E-005
 791.00  1.7992E-005
 791.50  1.7950E-005
 792.00  1.8259E-005
 792.50  1.8517E-005
 793.00  1.8015E-005
 793.50  1.7792E-005
 794.00  1.7450E-005
 794.50  1.6919E-005
 795.00  1.6687E-005
 795.50  1.6763E-005
 796.00  1.6568E-005
 796.50  1.6452E-005
 797.00  1.6305E-005
 797.50  1.5756E-005
 798.00  1.5194E-005
 798.50  1.4804E-005
 799.00  1.4624E-005
 799.50  1.4426E-005
 800.00  1.4416E-005
 800.50  1.4416E-005
 801.00  1.4275E-005
 801.50  1.3855E-005
 802.00  1.3840E-005
 802.50  1.3746E-005
 803.00  1.3900E-005
 803.50  1.3881E-005
 804.00  1.4007E-005
 804.50  1.3962E-005
 805.00  1.3835E-005
 805.50  1.3657E-005
 806.00  1.3805E-005
 806.50  1.3943E-005
 807.00  1.3922E-005
 807.50  1.3677E-005
 808.00  1.3337E-005
 808.50  1.2934E-005
 809.00  1.2520E-005
 809.50  1.2174E-005
 810.00  1.2172E-005
 810.50  1.2281E-005
 811.00  1.2256E-005
 811.50  1.2179E-005
 812.00  1.2114E-005
 812.50  1.1905E-005
 813.00  1.1687E-005
 813.50  1.1285E-005
 814.00  1.0689E-005
 814.50  1.0500E-005
 815.00  1.0512E-005
 815.50  1.0422E-005
 816.00  1.0687E-005
 816.50  1.0980E-005
 817.00  1.0814E-005
 817.50  1.0563E-005
 818.00  1.0437E-005
 818.50  1.0253E-005
 819.00  1.0263E-005
 819.50  1.0291E-005
 820.00  1.0258E-005
 820.50  9.8292E-006
 821.00  9.1913E-006
 821.50  8.3605E-006
 822.00  7.7001E-006
 822.50  7.2126E-006
 823.00  6.9747E-006
 823.50  7.2434E-006
 824.00  7.5412E-006
 824.50  7.6939E-006
 825.00  7.7318E-006
 825.50  7.7750E-006
 826.00  7.8387E-006
 826.50  8.2031E-006
 827.00  8.7356E-006
 827.50  9.1657E-006
 828.00  9.5839E-006
 828.50  9.9653E-006
 829.00  1.0135E-005
 829.50  1.0037E-005
 830.00  9.9578E-006
 830.50  9.6317E-006
 831.00  9.0759E-006
 831.50  8.3148E-006
 832.00  7.7274E-006
 832.50  7.2650E-006
 833.00  6.9437E-006
 833.50  6.8649E-006
 834.00  7.0058E-006
 834.50  7.3550E-006
 835.00  7.9682E-006
 835.50  8.5013E-006
 836.00  8.4390E-006
 836.50  8.5579E-006
 837.00  8.7090E-006
 837.50  8.4829E-006
 838.00  8.5271E-006
 838.50  8.9684E-006
 839.00  8.9919E-006
 839.50  9.0858E-006
 840.00  9.0213E-006
 840.50  9.1905E-006
 841.00  9.6907E-006
 841.50  1.0311E-005
 842.00  1.1082E-005
 842.50  1.1748E-005
 843.00  1.1295E-005
 843.50  1.0903E-005
 844.00  1.0781E-005
 844.50  1.0066E-005
 845.00  9.9150E-006
 845.50  1.0039E-005
 846.00  9.8162E-006
 846.50  9.6026E-006
 847.00  9.3787E-006
 847.50  9.0223E-006
 848.00  8.5389E-006
 848.50  7.9931E-006
 849.00  7.3687E-006
 849.50  6.8419E-006
 850.00  6.5687E-006
 850.50  6.3658E-006
 851.00  5.9870E-006
 851.50  5.4325E-006
 852.00  4.9732E-006
 852.50  4.4403E-006
 853.00  4.0326E-006
 853.50  3.5059E-006
 854.00  3.5072E-006
 854.50  3.6006E-006
 855.00  3.8822E-006
 855.50  3.7943E-006
 856.00  4.0825E-006
 856.50  4.1620E-006
 857.00  3.8226E-006
 857.50  3.7087E-006
 858.00  4.1568E-006
 858.50  4.7836E-006
 859.00  5.0881E-006
 859.50  5.1947E-006
 860.00  5.2011E-006
 860.50  4.9442E-006
 861.00  4.5278E-006
 861.50  4.7296E-006
 862.00  5.2555E-006
 862.50  6.0016E-006
 863.00  6.6782E-006
 863.50  6.7709E-006
 864.00  6.7328E-006
 864.50  7.3679E-006
 865.00  7.4197E-006
 865.50  7.8372E-006
 866.00  8.9811E-006
 866.50  9.7052E-006
 867.00  9.5808E-006
 867.50  9.3377E-006
 868.00  8.6635E-006
 868.50  7.7440E-006
 869.00  6.4575E-006
 869.50  5.1255E-006
 870.00  3.8313E-006
 870.50  3.0807E-006
 871.00  3.0653E-006
 871.50  3.6060E-006
 872.00  4.7736E-006
 872.50  6.5326E-006
 873.00  8.1695E-006
 873.50  9.5362E-006
 874.00  1.0843E-005
 874.50  1.2439E-005
 875.00  1.3090E-005
 875.50  1.3946E-005
 876.00  1.5029E-005
 876.50  1.5122E-005
 877.00  1.3857E-005
 877.50  1.3902E-005
 878.00  1.2388E-005
 878.50  1.1069E-005
 879.00  9.7940E-006
 879.50  8.7927E-006
 880.00  7.4542E-006
 880.50  7.0822E-006
 881.00  7.0540E-006
 881.50  7.4316E-006
 882.00  8.1716E-006
 882.50  8.8251E-006
 883.00  8.6889E-006
 883.50  7.8238E-006
 884.00  7.0472E-006
 884.50  6.6548E-006
 885.00  6.4536E-006
 885.50  6.7128E-006
 886.00  6.9730E-006
 886.50  6.4061E-006
 887.00  5.1782E-006
 887.50  3.9723E-006
 888.00  2.9675E-006
 888.50  2.8226E-006
 889.00  3.6496E-006
 889.50  4.5724E-006
 890.00  5.3203E-006
 890.50  5.9812E-006
 891.00  6.7879E-006
 891.50  7.1332E-006
 892.00  7.3912E-006
 892.50  8.2019E-006
 893.00  9.0446E-006
 893.50  9.2700E-006
 894.00  9.4152E-006
 894.50  9.4695E-006
 895.00  8.9902E-006
 895.50  8.3911E-006
 896.00  7.8143E-006
 896.50  7.2290E-006
 897.00  6.7525E-006
 897.50  6.2734E-006
 898.00  6.6153E-006
 898.50  7.4012E-006
 899.00  7.1740E-006
 899.50  6.6141E-006
 900.00  6.3201E-006
 900.50  5.2392E-006
 901.00  4.3146E-006
 901.50  4.7391E-006
 902.00  5.2445E-006
 902.50  5.7113E-006
 903.00  5.4389E-006
 903.50  5.7572E-006
 904.00  5.6032E-006
 904.50  5.9242E-006
 905.00  5.5616E-006
 905.50  6.0245E-006
 906.00  6.2328E-006
 906.50  6.6363E-006
 907.00  7.2577E-006
 907.50  8.0143E-006
 908.00  8.5187E-006
 908.50  8.3673E-006
 909.00  8.3274E-006
 909.50  7.9061E-006
 910.00  7.0660E-006
 910.50  6.2648E-006
 911.00  5.7637E-006
 911.50  5.0441E-006
 912.00  4.9657E-006
 912.50  5.1475E-006
 913.00  5.6226E-006
 913.50  5.8544E-006
 914.00  6.2478E-006
 914.50  6.3168E-006
 915.00  5.8703E-006
 915.50  5.5383E-006
 916.00  5.3014E-006
 916.50  4.9755E-006
 917.00  4.2932E-006
 917.50  4.3081E-006
 918.00  3.1430E-006
 918.50  2.2371E-006
 919.00  1.2085E-006
 919.50  1.1328E-006
 920.00  1.3877E-006
 920.50  1.7003E-006
 921.00  1.4574E-006
 921.50  8.2675E-007
 922.00  0.0000E+000
 922.50  0.0000E+000
 923.00  0.0000E+000
 923.50  0.0000E+000
 924.00  0.0000E+000
 924.50  1.0936E-006
 925.00  3.8633E-006
 925.50  6.8431E-006
 926.00  8.9785E-006
 926.50  9.8583E-006
 927.00  1.0432E-005
 927.50  9.9744E-006
 928.00  8.8640E-006
 928.50  8.0950E-006
 929.00  7.4143E-006
 929.50  5.6908E-006
 930.00  5.1979E-006
 930.50  4.9112E-006
 931.00  5.0240E-006
 931.50  4.8959E-006
 932.00  5.5974E-006
 932.50  5.8045E-006
 933.00  6.5946E-006
 933.50  8.1389E-006
 934.00  9.7409E-006
 934.50  1.0374E-005
 935.00  1.0246E-005
 935.50  9.0243E-006
 936.00  7.1580E-006
 936.50  5.2989E-006
 937.00  4.2189E-006
 937.50  4.1519E-006
 938.00  4.3107E-006
 938.50  4.4440E-006
 939.00  5.1100E-006
 939.50  5.2826E-006
 940.00  5.1619E-006
 940.50  5.3839E-006
 941.00  5.5238E-006
 941.50  5.5306E-006
 942.00  5.0241E-006
 942.50  4.3413E-006
 943.00  3.1792E-006
 943.50  2.0878E-006
 944.00  1.5723E-006
 944.50  2.1101E-006
 945.00  2.0836E-006
 945.50  2.6897E-006
 946.00  4.0470E-006
 946.50  4.5575E-006
 947.00  3.8536E-006
 947.50  3.8977E-006
 948.00  4.2594E-006
 948.50  3.5315E-006
 949.00  4.0517E-006
 949.50  6.2017E-006
 950.00  8.2622E-006
 950.50  1.0276E-005
 951.00  1.2304E-005
 951.50  1.3474E-005
 952.00  1.3746E-005
 952.50  1.4034E-005
 953.00  1.4834E-005
 953.50  1.6107E-005
 954.00  1.6793E-005
 954.50  1.8666E-005
 955.00  1.9938E-005
 955.50  2.0246E-005
 956.00  2.1038E-005
 956.50  2.1667E-005
 957.00  2.2120E-005
 957.50  2.3125E-005
 958.00  2.2794E-005
 958.50  2.1850E-005
 959.00  1.9852E-005
 959.50  1.6129E-005
 960.00  1.3488E-005
 960.50  1.0645E-005
 961.00  8.7287E-006
 961.50  1.0009E-005
 962.00  1.0298E-005
 962.50  1.0178E-005
 963.00  1.1439E-005
 963.50  1.3745E-005
 964.00  1.1205E-005
 964.50  1.0799E-005
 965.00  1.0585E-005
 965.50  1.1059E-005
 966.00  1.0219E-005
 966.50  9.1318E-006
 967.00  8.2134E-006
 967.50  6.3645E-006
 968.00  2.6005E-006
 968.50  5.6498E-007
 969.00  1.7210E-006
 969.50  3.0304E-006
 970.00  4.2078E-006
 970.50  6.4941E-006
 971.00  9.3937E-006
 971.50  1.2712E-005
 972.00  1.4797E-005
 972.50  1.6155E-005
 973.00  1.5006E-005
 973.50  9.9916E-006
 974.00  3.4323E-006
 974.50  2.2164E-007
 975.00  0.0000E+000
 975.50  0.0000E+000
 976.00  0.0000E+000
 976.50  1.6926E-006
 977.00  5.5930E-006
 977.50  1.1051E-005
 978.00  1.4390E-005
 978.50  2.1387E-005
 979.00  2.6604E-005
 979.50  3.0564E-005
 980.00  3.1210E-005
 980.50  3.3026E-005
 981.00  3.3653E-005
 981.50  3.3619E-005
 982.00  3.2090E-005
 982.50  3.0355E-005
 983.00  2.7995E-005
 983.50  2.2146E-005
 984.00  1.9557E-005
 984.50  1.6628E-005
 985.00  1.4072E-005
 985.50  1.1535E-005
 986.00  9.4345E-006
 986.50  9.2403E-006
 987.00  1.0380E-005
 987.50  1.0637E-005
 988.00  1.5493E-005
 988.50  2.2061E-005
 989.00  2.4154E-005
 989.50  2.5916E-005
 990.00  2.9012E-005
 990.50  2.7017E-005
 991.00  2.7153E-005
 991.50  3.0325E-005
 992.00  2.7946E-005
 992.50  2.3255E-005
 993.00  1.8252E-005
 993.50  9.4224E-006
 994.00  5.3905E-006
 994.50  1.5589E-005
 995.00  2.2460E-005
 995.50  2.6210E-005
 996.00  3.1947E-005
 996.50  3.5380E-005
 997.00  2.5071E-005
 997.50  2.4147E-005
 998.00  2.2565E-005
 998.50  1.8736E-005
 999.00  1.2239E-005
 999.50  8.9418E-006
1000.00  2.8629E-006
1000.50  1.2378E-007
1001.00  0.0000E+000
1001.50  0.0000E+000
1002.00  0.0000E+000
1002.50  0.0000E+000
1003.00  0.0000E+000
1003.50  0.0000E+000
1004.00  0.0000E+000
1004.50  0.0000E+000
1005.00  0.0000E+000
1005.50  0.0000E+000
1006.00  0.0000E+000
1006.50  0.0000E+000
1007.00  0.0000E+000
1007.50  0.0000E+000
1008.00  0.0000E+000
1008.50  0.0000E+000
1009.00  0.0000E+000
1009.50  0.0000E+000
1010.00  0.0000E+000
1010.50  0.0000E+000
1011.00  0.0000E+000
1011.50  0.0000E+000
1012.00  0.0000E+000
1012.50  0.0000E+000
1013.00  0.0000E+000
1013.50  0.0000E+000
1014.00  0.0000E+000
1014.50  0.0000E+000
1015.00  0.0000E+000
1015.50  0.0000E+000
1016.00  0.0000E+000
1016.50  0.0000E+000
1017.00  0.0000E+000
1017.50  0.0000E+000
1018.00  0.0000E+000
1018.50  0.0000E+000
1019.00  0.0000E+000
1019.50  0.0000E+000
1020.00  0.0000E+000
1020.50  0.0000E+000
1021.00  0.0000E+000
1021.50  0.0000E+000
1022.00  0.0000E+000
1022.50  0.0000E+000
1023.00  0.0000E+000
1023.50  0.0000E+000
1024.00  0.0000E+000
1024.50  0.0000E+000
1025.00  0.0000E+000
1025.50  0.0000E+000
1026.00  0.0000E+000
1026.50  0.0000E+000
1027.00  0.0000E+000
1027.50  0.0000E+000
1028.00  0.0000E+000
1028.50  0.0000E+000
1029.00  0.0000E+000
1029.50  0.0000E+000
1030.00  0.0000E+000
1030.50  0.0000E+000
1031.00  0.0000E+000
1031.50  0.0000E+000
1032.00  0.0000E+000
1032.50  0.0000E+000
1033.00  0.0000E+000
1033.50  0.0000E+000
1034.00  0.0000E+000
1034.50  0.0000E+000
1035.00  0.0000E+000
1035.50  0.0000E+000
1036.00  0.0000E+000
1036.50  0.0000E+000
1037.00  0.0000E+000
1037.50  0.0000E+000
1038.00  0.0000E+000
1038.50  0.0000E+000
1039.00  0.0000E+000
1039.50  0.0000E+000
1040.00  0.0000E+000
1040.50  0.0000E+000
1041.00  0.0000E+000
1041.50  0.0000E+000
1042.00  0.0000E+000
1042.50  0.0000E+000
1043.00  0.0000E+000
1043.50  0.0000E+000
1044.00  0.0000E+000
1044.50  0.0000E+000
1045.00  0.0000E+000
1045.50  0.0000E+000
1046.00  0.0000E+000
1046.50  0.0000E+000
1047.00  0.0000E+000
1047.50  0.0000E+000
1048.00  0.0000E+000
1048.50  0.0000E+000
1049.00  0.0000E+000
1049.50  0.0000E+000
1050.00  0.0000E+000
1050.50  0.0000E+000
1051.00  0.0000E+000
1051.50  0.0000E+000
1052.00  0.0000E+000
1052.50  0.0000E+000
1053.00  0.0000E+000
1053.50  0.0000E+000
1054.00  0.0000E+000
1054.50  0.0000E+000
1055.00  0.0000E+000
1055.50  0.0000E+000
1056.00  0.0000E+000
1056.50  0.0000E+000
1057.00  0.0000E+000
1057.50  0.0000E+000
1058.00  0.0000E+000
1058.50  0.0000E+000
1059.00  0.0000E+000
1059.50  0.0000E+000
1060.00  0.0000E+000
1060.50  0.0000E+000
1061.00  0.0000E+000
1061.50  0.0000E+000
1062.00  0.0000E+000
1062.50  0.0000E+000
1063.00  0.0000E+000
1063.50  0.0000E+000
1064.00  0.0000E+000
1064.50  0.0000E+000
1065.00  0.0000E+000
1065.50  0.0000E+000
1066.00  0.0000E+000
1066.50  0.0000E+000
1067.00  0.0000E+000
1067.50  0.0000E+000
1068.00  0.0000E+000
1068.50  0.0000E+000
1069.00  0.0000E+000
1069.50  0.0000E+000
1070.00  0.0000E+000
1070.50  0.0000E+000
1071.00  0.0000E+000
1071.50  0.0000E+000
1072.00  0.0000E+000
1072.50  0.0000E+000
1073.00  0.0000E+000
1073.50  0.0000E+000
1074.00  0.0000E+000
1074.50  0.0000E+000
1075.00  0.0000E+000
1075.50  0.0000E+000
1076.00  0.0000E+000
1076.50  0.0000E+000
1077.00  0.0000E+000
1077.50  0.0000E+000
1078.00  0.0000E+000
1078.50  0.0000E+000
1079.00  0.0000E+000
1079.50  0.0000E+000
1080.00  0.0000E+000
1080.50  0.0000E+000
1081.00  0.0000E+000
1081.50  0.0000E+000
1082.00  0.0000E+000
1082.50  0.0000E+000
1083.00  0.0000E+000
1083.50  0.0000E+000
1084.00  0.0000E+000
1084.50  0.0000E+000
1085.00  0.0000E+000
1085.50  0.0000E+000
1086.00  0.0000E+000
1086.50  0.0000E+000
1087.00  0.0000E+000
1087.50  0.0000E+000
1088.00  0.0000E+000
1088.50  0.0000E+000
1089.00  0.0000E+000
1089.50  0.0000E+000
1090.00  0.0000E+000
1090.50  0.0000E+000
1091.00  0.0000E+000
1091.50  0.0000E+000
1092.00  0.0000E+000
1092.50  0.0000E+000
1093.00  0.0000E+000
1093.50  0.0000E+000
1094.00  0.0000E+000
1094.50  0.0000E+000
1095.00  0.0000E+000
1095.50  0.0000E+000
1096.00  0.0000E+000
1096.50  0.0000E+000
1097.00  0.0000E+000
1097.50  0.0000E+000
1098.00  0.0000E+000
1098.50  0.0000E+000
1099.00  0.0000E+000
1099.50  0.0000E+000
1100.00  0.0000E+000
1100.50  0.0000E+000
1101.00  0.0000E+000
1101.50  0.0000E+000
1102.00  0.0000E+000
1102.50  0.0000E+000
1103.00  0.0000E+000
1103.50  0.0000E+000
1104.00  0.0000E+000
1104.50  0.0000E+000
1105.00  0.0000E+000
1105.50  0.0000E+000
1106.00  0.0000E+000
1106.50  0.0000E+000
1107.00  0.0000E+000
1107.50  0.0000E+000
1108.00  0.0000E+000
1108.50  0.0000E+000
1109.00  0.0000E+000
1109.50  0.0000E+000
1110.00  0.0000E+000
1110.50  0.0000E+000
1111.00  0.0000E+000
1111.50  0.0000E+000
1112.00  0.0000E+000
1112.50  0.0000E+000
1113.00  0.0000E+000
1113.50  0.0000E+000
1114.00  0.0000E+000
1114.50  0.0000E+000
1115.00  0.0000E+000
1115.50  0.0000E+000
1116.00  0.0000E+000
1116.50  0.0000E+000
1117.00  0.0000E+000
1117.50  0.0000E+000
1118.00  0.0000E+000
1118.50  0.0000E+000
1119.00  0.0000E+000
1119.50  0.0000E+000
1120.00  0.0000E+000
1120.50  0.0000E+000
1121.00  0.0000E+000
1121.50  0.0000E+000
1122.00  0.0000E+000
1122.50  0.0000E+000
1123.00  0.0000E+000
1123.50  0.0000E+000
1124.00  0.0000E+000
1124.50  0.0000E+000
1125.00  0.0000E+000
1125.50  0.0000E+000
1126.00  0.0000E+000
1126.50  0.0000E+000
1127.00  0.0000E+000
1127.50  0.0000E+000
: 6
