" File: 160128_ReferenceSpectra\18.IRR
" RAD->  Wave:366.44nm  Pix:434  Val:  0.000  Time:380ms  Avg:5  Sm:1  Sg:1  Tc:off  SNAP  Xt:1  Ch:1  Xtrig wnmcal >RAD-IS6.CAL
 180.00  0.0000E+000
 180.50  0.0000E+000
 181.00  0.0000E+000
 181.50  0.0000E+000
 182.00  0.0000E+000
 182.50  0.0000E+000
 183.00  0.0000E+000
 183.50  0.0000E+000
 184.00  0.0000E+000
 184.50  0.0000E+000
 185.00  0.0000E+000
 185.50  0.0000E+000
 186.00  0.0000E+000
 186.50  0.0000E+000
 187.00  0.0000E+000
 187.50  0.0000E+000
 188.00  0.0000E+000
 188.50  0.0000E+000
 189.00  0.0000E+000
 189.50  0.0000E+000
 190.00  0.0000E+000
 190.50  0.0000E+000
 191.00  0.0000E+000
 191.50  0.0000E+000
 192.00  0.0000E+000
 192.50  0.0000E+000
 193.00  0.0000E+000
 193.50  0.0000E+000
 194.00  0.0000E+000
 194.50  0.0000E+000
 195.00  0.0000E+000
 195.50  0.0000E+000
 196.00  0.0000E+000
 196.50  0.0000E+000
 197.00  0.0000E+000
 197.50  0.0000E+000
 198.00  0.0000E+000
 198.50  0.0000E+000
 199.00  0.0000E+000
 199.50  0.0000E+000
 200.00  0.0000E+000
 200.50  0.0000E+000
 201.00  0.0000E+000
 201.50  0.0000E+000
 202.00  0.0000E+000
 202.50  0.0000E+000
 203.00  0.0000E+000
 203.50  0.0000E+000
 204.00  0.0000E+000
 204.50  0.0000E+000
 205.00  0.0000E+000
 205.50  0.0000E+000
 206.00  0.0000E+000
 206.50  0.0000E+000
 207.00  0.0000E+000
 207.50  0.0000E+000
 208.00  0.0000E+000
 208.50  0.0000E+000
 209.00  0.0000E+000
 209.50  0.0000E+000
 210.00  0.0000E+000
 210.50  0.0000E+000
 211.00  0.0000E+000
 211.50  0.0000E+000
 212.00  0.0000E+000
 212.50  0.0000E+000
 213.00  0.0000E+000
 213.50  0.0000E+000
 214.00  0.0000E+000
 214.50  0.0000E+000
 215.00  0.0000E+000
 215.50  0.0000E+000
 216.00  0.0000E+000
 216.50  0.0000E+000
 217.00  0.0000E+000
 217.50  0.0000E+000
 218.00  0.0000E+000
 218.50  0.0000E+000
 219.00  0.0000E+000
 219.50  0.0000E+000
 220.00  0.0000E+000
 220.50  0.0000E+000
 221.00  0.0000E+000
 221.50  0.0000E+000
 222.00  0.0000E+000
 222.50  0.0000E+000
 223.00  0.0000E+000
 223.50  0.0000E+000
 224.00  0.0000E+000
 224.50  0.0000E+000
 225.00  0.0000E+000
 225.50  0.0000E+000
 226.00  0.0000E+000
 226.50  0.0000E+000
 227.00  0.0000E+000
 227.50  0.0000E+000
 228.00  0.0000E+000
 228.50  0.0000E+000
 229.00  0.0000E+000
 229.50  0.0000E+000
 230.00  0.0000E+000
 230.50  0.0000E+000
 231.00  0.0000E+000
 231.50  0.0000E+000
 232.00  0.0000E+000
 232.50  0.0000E+000
 233.00  0.0000E+000
 233.50  0.0000E+000
 234.00  0.0000E+000
 234.50  0.0000E+000
 235.00  0.0000E+000
 235.50  0.0000E+000
 236.00  0.0000E+000
 236.50  0.0000E+000
 237.00  0.0000E+000
 237.50  0.0000E+000
 238.00  0.0000E+000
 238.50  0.0000E+000
 239.00  0.0000E+000
 239.50  0.0000E+000
 240.00  0.0000E+000
 240.50  0.0000E+000
 241.00  0.0000E+000
 241.50  0.0000E+000
 242.00  0.0000E+000
 242.50  0.0000E+000
 243.00  0.0000E+000
 243.50  0.0000E+000
 244.00  0.0000E+000
 244.50  0.0000E+000
 245.00  0.0000E+000
 245.50  0.0000E+000
 246.00  0.0000E+000
 246.50  0.0000E+000
 247.00  0.0000E+000
 247.50  0.0000E+000
 248.00  0.0000E+000
 248.50  0.0000E+000
 249.00  0.0000E+000
 249.50  0.0000E+000
 250.00  0.0000E+000
 250.50  0.0000E+000
 251.00  0.0000E+000
 251.50  0.0000E+000
 252.00  0.0000E+000
 252.50  0.0000E+000
 253.00  0.0000E+000
 253.50  0.0000E+000
 254.00  0.0000E+000
 254.50  0.0000E+000
 255.00  0.0000E+000
 255.50  0.0000E+000
 256.00  0.0000E+000
 256.50  0.0000E+000
 257.00  0.0000E+000
 257.50  0.0000E+000
 258.00  0.0000E+000
 258.50  0.0000E+000
 259.00  0.0000E+000
 259.50  0.0000E+000
 260.00  0.0000E+000
 260.50  0.0000E+000
 261.00  0.0000E+000
 261.50  0.0000E+000
 262.00  0.0000E+000
 262.50  0.0000E+000
 263.00  0.0000E+000
 263.50  0.0000E+000
 264.00  0.0000E+000
 264.50  0.0000E+000
 265.00  0.0000E+000
 265.50  0.0000E+000
 266.00  0.0000E+000
 266.50  0.0000E+000
 267.00  0.0000E+000
 267.50  0.0000E+000
 268.00  0.0000E+000
 268.50  0.0000E+000
 269.00  0.0000E+000
 269.50  0.0000E+000
 270.00  0.0000E+000
 270.50  0.0000E+000
 271.00  0.0000E+000
 271.50  0.0000E+000
 272.00  0.0000E+000
 272.50  0.0000E+000
 273.00  0.0000E+000
 273.50  0.0000E+000
 274.00  0.0000E+000
 274.50  0.0000E+000
 275.00  0.0000E+000
 275.50  0.0000E+000
 276.00  0.0000E+000
 276.50  0.0000E+000
 277.00  0.0000E+000
 277.50  0.0000E+000
 278.00  0.0000E+000
 278.50  0.0000E+000
 279.00  0.0000E+000
 279.50  0.0000E+000
 280.00  0.0000E+000
 280.50  0.0000E+000
 281.00  0.0000E+000
 281.50  0.0000E+000
 282.00  0.0000E+000
 282.50  0.0000E+000
 283.00  0.0000E+000
 283.50  0.0000E+000
 284.00  0.0000E+000
 284.50  0.0000E+000
 285.00  0.0000E+000
 285.50  0.0000E+000
 286.00  0.0000E+000
 286.50  0.0000E+000
 287.00  0.0000E+000
 287.50  0.0000E+000
 288.00  0.0000E+000
 288.50  0.0000E+000
 289.00  0.0000E+000
 289.50  0.0000E+000
 290.00  0.0000E+000
 290.50  0.0000E+000
 291.00  0.0000E+000
 291.50  0.0000E+000
 292.00  0.0000E+000
 292.50  0.0000E+000
 293.00  0.0000E+000
 293.50  0.0000E+000
 294.00  0.0000E+000
 294.50  0.0000E+000
 295.00  0.0000E+000
 295.50  0.0000E+000
 296.00  0.0000E+000
 296.50  0.0000E+000
 297.00  0.0000E+000
 297.50  0.0000E+000
 298.00  0.0000E+000
 298.50  0.0000E+000
 299.00  0.0000E+000
 299.50  0.0000E+000
 300.00  0.0000E+000
 300.50  0.0000E+000
 301.00  0.0000E+000
 301.50  0.0000E+000
 302.00  0.0000E+000
 302.50  0.0000E+000
 303.00  0.0000E+000
 303.50  0.0000E+000
 304.00  0.0000E+000
 304.50  0.0000E+000
 305.00  0.0000E+000
 305.50  0.0000E+000
 306.00  0.0000E+000
 306.50  0.0000E+000
 307.00  0.0000E+000
 307.50  0.0000E+000
 308.00  0.0000E+000
 308.50  0.0000E+000
 309.00  0.0000E+000
 309.50  0.0000E+000
 310.00  0.0000E+000
 310.50  0.0000E+000
 311.00  0.0000E+000
 311.50  0.0000E+000
 312.00  0.0000E+000
 312.50  0.0000E+000
 313.00  0.0000E+000
 313.50  0.0000E+000
 314.00  0.0000E+000
 314.50  0.0000E+000
 315.00  0.0000E+000
 315.50  0.0000E+000
 316.00  0.0000E+000
 316.50  0.0000E+000
 317.00  0.0000E+000
 317.50  0.0000E+000
 318.00  0.0000E+000
 318.50  0.0000E+000
 319.00  0.0000E+000
 319.50  0.0000E+000
 320.00  0.0000E+000
 320.50  0.0000E+000
 321.00  0.0000E+000
 321.50  0.0000E+000
 322.00  0.0000E+000
 322.50  0.0000E+000
 323.00  0.0000E+000
 323.50  0.0000E+000
 324.00  0.0000E+000
 324.50  0.0000E+000
 325.00  0.0000E+000
 325.50  0.0000E+000
 326.00  0.0000E+000
 326.50  0.0000E+000
 327.00  0.0000E+000
 327.50  0.0000E+000
 328.00  0.0000E+000
 328.50  0.0000E+000
 329.00  0.0000E+000
 329.50  0.0000E+000
 330.00  0.0000E+000
 330.50  0.0000E+000
 331.00  0.0000E+000
 331.50  0.0000E+000
 332.00  0.0000E+000
 332.50  0.0000E+000
 333.00  0.0000E+000
 333.50  0.0000E+000
 334.00  0.0000E+000
 334.50  0.0000E+000
 335.00  0.0000E+000
 335.50  0.0000E+000
 336.00  0.0000E+000
 336.50  0.0000E+000
 337.00  0.0000E+000
 337.50  0.0000E+000
 338.00  0.0000E+000
 338.50  0.0000E+000
 339.00  0.0000E+000
 339.50  0.0000E+000
 340.00  0.0000E+000
 340.50  0.0000E+000
 341.00  0.0000E+000
 341.50  0.0000E+000
 342.00  0.0000E+000
 342.50  0.0000E+000
 343.00  0.0000E+000
 343.50  0.0000E+000
 344.00  0.0000E+000
 344.50  0.0000E+000
 345.00  0.0000E+000
 345.50  0.0000E+000
 346.00  0.0000E+000
 346.50  0.0000E+000
 347.00  0.0000E+000
 347.50  0.0000E+000
 348.00  0.0000E+000
 348.50  0.0000E+000
 349.00  0.0000E+000
 349.50  0.0000E+000
 350.00  0.0000E+000
 350.50  0.0000E+000
 351.00  0.0000E+000
 351.50  0.0000E+000
 352.00  0.0000E+000
 352.50  0.0000E+000
 353.00  0.0000E+000
 353.50  0.0000E+000
 354.00  0.0000E+000
 354.50  0.0000E+000
 355.00  0.0000E+000
 355.50  0.0000E+000
 356.00  0.0000E+000
 356.50  0.0000E+000
 357.00  0.0000E+000
 357.50  0.0000E+000
 358.00  0.0000E+000
 358.50  0.0000E+000
 359.00  0.0000E+000
 359.50  6.2866E-009
 360.00  8.4059E-008
 360.50  1.3479E-007
 361.00  1.3290E-007
 361.50  1.2014E-007
 362.00  1.0773E-007
 362.50  1.0875E-007
 363.00  1.0485E-007
 363.50  9.2777E-008
 364.00  8.1580E-008
 364.50  7.4237E-008
 365.00  8.3230E-008
 365.50  1.0124E-007
 366.00  1.5901E-007
 366.50  1.8588E-007
 367.00  2.0734E-007
 367.50  2.2866E-007
 368.00  2.5239E-007
 368.50  2.5954E-007
 369.00  2.7388E-007
 369.50  2.7271E-007
 370.00  2.3339E-007
 370.50  2.1377E-007
 371.00  2.0359E-007
 371.50  2.0338E-007
 372.00  2.0425E-007
 372.50  1.9704E-007
 373.00  1.9136E-007
 373.50  1.8762E-007
 374.00  2.1813E-007
 374.50  1.7452E-007
 375.00  1.2943E-007
 375.50  9.0762E-008
 376.00  6.7213E-008
 376.50  4.1822E-008
 377.00  5.0715E-008
 377.50  7.5546E-008
 378.00  7.7335E-008
 378.50  8.7951E-008
 379.00  1.3108E-007
 379.50  1.7232E-007
 380.00  1.8115E-007
 380.50  1.6602E-007
 381.00  1.4236E-007
 381.50  9.1601E-008
 382.00  4.8147E-008
 382.50  4.8065E-008
 383.00  5.1158E-008
 383.50  6.1542E-008
 384.00  9.1475E-008
 384.50  1.0341E-007
 385.00  1.1435E-007
 385.50  1.5699E-007
 386.00  2.0896E-007
 386.50  2.6211E-007
 387.00  3.1964E-007
 387.50  3.4253E-007
 388.00  3.5577E-007
 388.50  3.5126E-007
 389.00  3.3139E-007
 389.50  3.0791E-007
 390.00  2.6642E-007
 390.50  2.0652E-007
 391.00  1.5471E-007
 391.50  1.1901E-007
 392.00  8.3750E-008
 392.50  1.0647E-007
 393.00  1.3799E-007
 393.50  1.5096E-007
 394.00  2.1765E-007
 394.50  2.6301E-007
 395.00  2.6108E-007
 395.50  2.7969E-007
 396.00  2.5954E-007
 396.50  2.0109E-007
 397.00  1.4660E-007
 397.50  7.5603E-008
 398.00  6.3349E-008
 398.50  7.1685E-008
 399.00  9.4002E-008
 399.50  1.9600E-007
 400.00  2.8873E-007
 400.50  3.2394E-007
 401.00  3.4685E-007
 401.50  3.3168E-007
 402.00  2.9401E-007
 402.50  2.5725E-007
 403.00  2.4229E-007
 403.50  2.5068E-007
 404.00  2.5829E-007
 404.50  2.3801E-007
 405.00  2.0787E-007
 405.50  1.6589E-007
 406.00  1.3776E-007
 406.50  1.2516E-007
 407.00  1.2122E-007
 407.50  1.1020E-007
 408.00  1.1069E-007
 408.50  1.0839E-007
 409.00  1.4384E-007
 409.50  2.1649E-007
 410.00  3.0557E-007
 410.50  3.6315E-007
 411.00  3.9144E-007
 411.50  3.8572E-007
 412.00  3.5756E-007
 412.50  3.3182E-007
 413.00  3.5135E-007
 413.50  3.5812E-007
 414.00  3.6589E-007
 414.50  3.5268E-007
 415.00  3.4232E-007
 415.50  3.1058E-007
 416.00  2.7711E-007
 416.50  2.5667E-007
 417.00  2.1889E-007
 417.50  1.8205E-007
 418.00  1.3720E-007
 418.50  1.0374E-007
 419.00  7.6316E-008
 419.50  7.6840E-008
 420.00  9.4662E-008
 420.50  1.1895E-007
 421.00  1.3486E-007
 421.50  1.2448E-007
 422.00  1.0317E-007
 422.50  1.0210E-007
 423.00  1.1841E-007
 423.50  1.5087E-007
 424.00  1.9950E-007
 424.50  2.4179E-007
 425.00  2.4122E-007
 425.50  2.0177E-007
 426.00  1.4592E-007
 426.50  8.9919E-008
 427.00  4.8965E-008
 427.50  8.3690E-008
 428.00  9.1633E-008
 428.50  1.3497E-007
 429.00  2.1553E-007
 429.50  2.5291E-007
 430.00  2.9170E-007
 430.50  3.2129E-007
 431.00  2.8207E-007
 431.50  2.2410E-007
 432.00  2.1981E-007
 432.50  2.0851E-007
 433.00  2.2761E-007
 433.50  2.4365E-007
 434.00  2.3030E-007
 434.50  2.1157E-007
 435.00  1.7682E-007
 435.50  1.5497E-007
 436.00  1.3925E-007
 436.50  1.2903E-007
 437.00  1.5236E-007
 437.50  1.5546E-007
 438.00  1.4585E-007
 438.50  1.4552E-007
 439.00  1.1575E-007
 439.50  1.0914E-007
 440.00  1.2697E-007
 440.50  8.5109E-008
 441.00  2.6413E-008
 441.50  1.2842E-009
 442.00  0.0000E+000
 442.50  0.0000E+000
 443.00  0.0000E+000
 443.50  1.0658E-008
 444.00  3.6836E-008
 444.50  7.6399E-008
 445.00  1.2974E-007
 445.50  1.4078E-007
 446.00  1.4021E-007
 446.50  1.3538E-007
 447.00  1.3087E-007
 447.50  1.2429E-007
 448.00  1.2992E-007
 448.50  1.5632E-007
 449.00  1.9879E-007
 449.50  2.2662E-007
 450.00  2.3868E-007
 450.50  2.3386E-007
 451.00  2.1124E-007
 451.50  1.6665E-007
 452.00  1.2258E-007
 452.50  8.9129E-008
 453.00  6.9579E-008
 453.50  8.0861E-008
 454.00  1.0900E-007
 454.50  1.3795E-007
 455.00  1.4303E-007
 455.50  1.3670E-007
 456.00  1.1638E-007
 456.50  9.1088E-008
 457.00  7.9155E-008
 457.50  8.3282E-008
 458.00  8.5219E-008
 458.50  8.5543E-008
 459.00  8.5864E-008
 459.50  9.4788E-008
 460.00  9.8638E-008
 460.50  1.0802E-007
 461.00  1.2919E-007
 461.50  1.5691E-007
 462.00  1.7452E-007
 462.50  1.8083E-007
 463.00  1.7156E-007
 463.50  1.4181E-007
 464.00  9.8925E-008
 464.50  6.5484E-008
 465.00  4.8459E-008
 465.50  4.5392E-008
 466.00  5.0654E-008
 466.50  6.5962E-008
 467.00  8.8420E-008
 467.50  1.0229E-007
 468.00  1.1142E-007
 468.50  1.1051E-007
 469.00  1.1057E-007
 469.50  1.1565E-007
 470.00  1.3385E-007
 470.50  1.6383E-007
 471.00  1.8851E-007
 471.50  1.9577E-007
 472.00  2.0070E-007
 472.50  1.9515E-007
 473.00  1.7582E-007
 473.50  1.6636E-007
 474.00  1.5430E-007
 474.50  1.3066E-007
 475.00  1.0405E-007
 475.50  7.4571E-008
 476.00  6.3318E-008
 476.50  6.5240E-008
 477.00  7.4899E-008
 477.50  1.0660E-007
 478.00  1.4927E-007
 478.50  1.6403E-007
 479.00  1.3940E-007
 479.50  1.2288E-007
 480.00  1.1415E-007
 480.50  1.0058E-007
 481.00  1.0819E-007
 481.50  1.2961E-007
 482.00  1.3379E-007
 482.50  1.2272E-007
 483.00  1.0996E-007
 483.50  1.0461E-007
 484.00  1.0499E-007
 484.50  1.0146E-007
 485.00  1.0450E-007
 485.50  1.2027E-007
 486.00  1.2661E-007
 486.50  1.3221E-007
 487.00  1.2452E-007
 487.50  9.7258E-008
 488.00  7.3429E-008
 488.50  3.8648E-008
 489.00  3.4323E-008
 489.50  4.7443E-008
 490.00  5.6317E-008
 490.50  7.3852E-008
 491.00  8.6787E-008
 491.50  8.1215E-008
 492.00  7.5727E-008
 492.50  7.8358E-008
 493.00  8.0538E-008
 493.50  8.9047E-008
 494.00  1.1611E-007
 494.50  1.3995E-007
 495.00  1.5217E-007
 495.50  1.5676E-007
 496.00  1.5220E-007
 496.50  1.1404E-007
 497.00  6.7049E-008
 497.50  4.3557E-008
 498.00  2.4657E-008
 498.50  6.4065E-009
 499.00  3.7903E-008
 499.50  5.1273E-008
 500.00  6.2314E-008
 500.50  7.5592E-008
 501.00  8.7095E-008
 501.50  9.4497E-008
 502.00  9.4073E-008
 502.50  7.9859E-008
 503.00  5.7268E-008
 503.50  6.1407E-008
 504.00  5.9749E-008
 504.50  5.4100E-008
 505.00  6.9567E-008
 505.50  8.1798E-008
 506.00  7.2930E-008
 506.50  7.0294E-008
 507.00  8.0246E-008
 507.50  1.0584E-007
 508.00  1.4626E-007
 508.50  1.9447E-007
 509.00  2.3110E-007
 509.50  2.6474E-007
 510.00  2.5650E-007
 510.50  2.2431E-007
 511.00  2.0398E-007
 511.50  1.9012E-007
 512.00  1.7906E-007
 512.50  1.8990E-007
 513.00  1.9358E-007
 513.50  1.8604E-007
 514.00  1.8169E-007
 514.50  1.6409E-007
 515.00  1.6519E-007
 515.50  1.6580E-007
 516.00  1.5226E-007
 516.50  1.2991E-007
 517.00  1.1813E-007
 517.50  1.0415E-007
 518.00  1.0229E-007
 518.50  1.4714E-007
 519.00  2.0621E-007
 519.50  2.5720E-007
 520.00  3.0135E-007
 520.50  3.3569E-007
 521.00  3.2951E-007
 521.50  2.8849E-007
 522.00  2.5227E-007
 522.50  2.2259E-007
 523.00  1.8491E-007
 523.50  1.5144E-007
 524.00  1.3618E-007
 524.50  1.2084E-007
 525.00  1.2177E-007
 525.50  1.2632E-007
 526.00  1.3906E-007
 526.50  1.3820E-007
 527.00  1.3642E-007
 527.50  1.3183E-007
 528.00  1.1827E-007
 528.50  1.1445E-007
 529.00  1.1098E-007
 529.50  9.8781E-008
 530.00  9.9829E-008
 530.50  1.2268E-007
 531.00  1.4438E-007
 531.50  1.8420E-007
 532.00  2.2253E-007
 532.50  2.5588E-007
 533.00  2.9332E-007
 533.50  3.2982E-007
 534.00  3.5869E-007
 534.50  3.4620E-007
 535.00  3.0527E-007
 535.50  2.4635E-007
 536.00  1.8583E-007
 536.50  1.3263E-007
 537.00  1.4252E-007
 537.50  1.5340E-007
 538.00  1.4518E-007
 538.50  1.2301E-007
 539.00  1.0305E-007
 539.50  6.8833E-008
 540.00  3.1964E-008
 540.50  5.2424E-008
 541.00  9.0847E-008
 541.50  1.6626E-007
 542.00  1.9751E-007
 542.50  2.3325E-007
 543.00  2.6910E-007
 543.50  2.7169E-007
 544.00  2.7612E-007
 544.50  3.0003E-007
 545.00  2.8596E-007
 545.50  2.6122E-007
 546.00  2.4655E-007
 546.50  2.4579E-007
 547.00  2.6781E-007
 547.50  2.8235E-007
 548.00  2.7965E-007
 548.50  2.6020E-007
 549.00  2.3382E-007
 549.50  2.1989E-007
 550.00  2.3238E-007
 550.50  2.9079E-007
 551.00  3.0878E-007
 551.50  2.8321E-007
 552.00  2.9150E-007
 552.50  2.8474E-007
 553.00  3.0845E-007
 553.50  3.3331E-007
 554.00  3.6237E-007
 554.50  3.8085E-007
 555.00  3.8450E-007
 555.50  4.0819E-007
 556.00  4.4343E-007
 556.50  4.6525E-007
 557.00  4.5079E-007
 557.50  4.4343E-007
 558.00  4.3935E-007
 558.50  4.7612E-007
 559.00  5.0793E-007
 559.50  5.2269E-007
 560.00  5.3562E-007
 560.50  5.3803E-007
 561.00  5.2489E-007
 561.50  5.2265E-007
 562.00  5.7382E-007
 562.50  5.9312E-007
 563.00  5.8748E-007
 563.50  5.9034E-007
 564.00  5.9074E-007
 564.50  5.1218E-007
 565.00  5.0412E-007
 565.50  5.3809E-007
 566.00  5.7793E-007
 566.50  5.8244E-007
 567.00  5.7856E-007
 567.50  5.6781E-007
 568.00  5.3645E-007
 568.50  5.3907E-007
 569.00  5.7265E-007
 569.50  5.7655E-007
 570.00  5.5156E-007
 570.50  5.2181E-007
 571.00  5.0526E-007
 571.50  5.1105E-007
 572.00  5.0339E-007
 572.50  5.3329E-007
 573.00  5.7791E-007
 573.50  5.7730E-007
 574.00  6.4210E-007
 574.50  6.8065E-007
 575.00  6.7930E-007
 575.50  6.5484E-007
 576.00  6.3408E-007
 576.50  6.1389E-007
 577.00  6.1918E-007
 577.50  6.4776E-007
 578.00  6.9302E-007
 578.50  7.3947E-007
 579.00  7.8132E-007
 579.50  8.2517E-007
 580.00  8.5276E-007
 580.50  9.0507E-007
 581.00  1.0095E-006
 581.50  1.0632E-006
 582.00  1.0867E-006
 582.50  1.1099E-006
 583.00  1.0841E-006
 583.50  1.0679E-006
 584.00  1.0753E-006
 584.50  1.0176E-006
 585.00  9.5974E-007
 585.50  9.4967E-007
 586.00  8.9343E-007
 586.50  8.7434E-007
 587.00  8.8386E-007
 587.50  8.9015E-007
 588.00  8.7233E-007
 588.50  9.0343E-007
 589.00  1.0076E-006
 589.50  1.1429E-006
 590.00  1.2579E-006
 590.50  1.3465E-006
 591.00  1.4034E-006
 591.50  1.4151E-006
 592.00  1.4059E-006
 592.50  1.4121E-006
 593.00  1.3138E-006
 593.50  1.2585E-006
 594.00  1.2263E-006
 594.50  1.1862E-006
 595.00  1.2057E-006
 595.50  1.2791E-006
 596.00  1.2955E-006
 596.50  1.2782E-006
 597.00  1.2118E-006
 597.50  1.1385E-006
 598.00  1.0572E-006
 598.50  9.9280E-007
 599.00  1.0181E-006
 599.50  1.0742E-006
 600.00  1.1374E-006
 600.50  1.2644E-006
 601.00  1.4013E-006
 601.50  1.4075E-006
 602.00  1.4486E-006
 602.50  1.4806E-006
 603.00  1.4360E-006
 603.50  1.4136E-006
 604.00  1.4172E-006
 604.50  1.3807E-006
 605.00  1.3688E-006
 605.50  1.3700E-006
 606.00  1.4539E-006
 606.50  1.4913E-006
 607.00  1.5392E-006
 607.50  1.5510E-006
 608.00  1.5482E-006
 608.50  1.5890E-006
 609.00  1.6558E-006
 609.50  1.6852E-006
 610.00  1.7301E-006
 610.50  1.7626E-006
 611.00  1.7389E-006
 611.50  1.6692E-006
 612.00  1.6221E-006
 612.50  1.5570E-006
 613.00  1.4839E-006
 613.50  1.4922E-006
 614.00  1.5361E-006
 614.50  1.5819E-006
 615.00  1.7001E-006
 615.50  1.8353E-006
 616.00  1.9289E-006
 616.50  2.0778E-006
 617.00  2.1641E-006
 617.50  2.3011E-006
 618.00  2.3795E-006
 618.50  2.4489E-006
 619.00  2.4832E-006
 619.50  2.4915E-006
 620.00  2.4698E-006
 620.50  2.4360E-006
 621.00  2.4059E-006
 621.50  2.3933E-006
 622.00  2.3751E-006
 622.50  2.3190E-006
 623.00  2.2852E-006
 623.50  2.3939E-006
 624.00  2.4421E-006
 624.50  2.4580E-006
 625.00  2.6175E-006
 625.50  2.7604E-006
 626.00  2.7889E-006
 626.50  2.8960E-006
 627.00  2.9917E-006
 627.50  2.9841E-006
 628.00  2.9675E-006
 628.50  2.9787E-006
 629.00  2.9880E-006
 629.50  2.9812E-006
 630.00  3.0100E-006
 630.50  3.0965E-006
 631.00  3.1548E-006
 631.50  3.2417E-006
 632.00  3.3254E-006
 632.50  3.4097E-006
 633.00  3.4737E-006
 633.50  3.5057E-006
 634.00  3.5548E-006
 634.50  3.6297E-006
 635.00  3.6827E-006
 635.50  3.7256E-006
 636.00  3.8054E-006
 636.50  3.7898E-006
 637.00  3.8360E-006
 637.50  3.9494E-006
 638.00  4.1242E-006
 638.50  4.3060E-006
 639.00  4.4656E-006
 639.50  4.5544E-006
 640.00  4.6051E-006
 640.50  4.6249E-006
 641.00  4.6417E-006
 641.50  4.7367E-006
 642.00  4.8090E-006
 642.50  4.8876E-006
 643.00  4.9799E-006
 643.50  5.1530E-006
 644.00  5.3148E-006
 644.50  5.5590E-006
 645.00  5.8727E-006
 645.50  6.1373E-006
 646.00  6.4617E-006
 646.50  6.8296E-006
 647.00  7.0886E-006
 647.50  7.2529E-006
 648.00  7.4042E-006
 648.50  7.4288E-006
 649.00  7.4085E-006
 649.50  7.4596E-006
 650.00  7.6344E-006
 650.50  7.7254E-006
 651.00  7.8442E-006
 651.50  7.9646E-006
 652.00  8.0807E-006
 652.50  8.1727E-006
 653.00  8.2956E-006
 653.50  8.4989E-006
 654.00  8.7263E-006
 654.50  9.0341E-006
 655.00  9.4507E-006
 655.50  1.0015E-005
 656.00  1.0524E-005
 656.50  1.0982E-005
 657.00  1.1405E-005
 657.50  1.1627E-005
 658.00  1.1653E-005
 658.50  1.1856E-005
 659.00  1.2122E-005
 659.50  1.2401E-005
 660.00  1.2737E-005
 660.50  1.3237E-005
 661.00  1.3866E-005
 661.50  1.4389E-005
 662.00  1.5127E-005
 662.50  1.5989E-005
 663.00  1.6703E-005
 663.50  1.7207E-005
 664.00  1.7920E-005
 664.50  1.8415E-005
 665.00  1.8929E-005
 665.50  1.9499E-005
 666.00  2.0271E-005
 666.50  2.1027E-005
 667.00  2.1881E-005
 667.50  2.2835E-005
 668.00  2.3841E-005
 668.50  2.4831E-005
 669.00  2.5877E-005
 669.50  2.6845E-005
 670.00  2.7853E-005
 670.50  2.8833E-005
 671.00  2.9938E-005
 671.50  3.1082E-005
 672.00  3.2414E-005
 672.50  3.3823E-005
 673.00  3.5390E-005
 673.50  3.7053E-005
 674.00  3.8789E-005
 674.50  4.0578E-005
 675.00  4.2392E-005
 675.50  4.4298E-005
 676.00  4.6234E-005
 676.50  4.8247E-005
 677.00  5.0252E-005
 677.50  5.2373E-005
 678.00  5.4424E-005
 678.50  5.6662E-005
 679.00  5.8949E-005
 679.50  6.1364E-005
 680.00  6.3869E-005
 680.50  6.6672E-005
 681.00  6.9737E-005
 681.50  7.2987E-005
 682.00  7.6422E-005
 682.50  8.0041E-005
 683.00  8.3649E-005
 683.50  8.7335E-005
 684.00  9.1159E-005
 684.50  9.5172E-005
 685.00  9.9427E-005
 685.50  1.0406E-004
 686.00  1.0906E-004
 686.50  1.1459E-004
 687.00  1.2037E-004
 687.50  1.2643E-004
 688.00  1.3299E-004
 688.50  1.3992E-004
 689.00  1.4732E-004
 689.50  1.5540E-004
 690.00  1.6410E-004
 690.50  1.7348E-004
 691.00  1.8371E-004
 691.50  1.9487E-004
 692.00  2.0695E-004
 692.50  2.1983E-004
 693.00  2.3332E-004
 693.50  2.4772E-004
 694.00  2.6307E-004
 694.50  2.7925E-004
 695.00  2.9662E-004
 695.50  3.1518E-004
 696.00  3.3476E-004
 696.50  3.5547E-004
 697.00  3.7728E-004
 697.50  4.0014E-004
 698.00  4.2409E-004
 698.50  4.4883E-004
 699.00  4.7415E-004
 699.50  5.0001E-004
 700.00  5.2636E-004
 700.50  5.5320E-004
 701.00  5.8094E-004
 701.50  6.1002E-004
 702.00  6.4059E-004
 702.50  6.7244E-004
 703.00  7.0543E-004
 703.50  7.3926E-004
 704.00  7.7366E-004
 704.50  8.0866E-004
 705.00  8.4457E-004
 705.50  8.8168E-004
 706.00  9.2020E-004
 706.50  9.6006E-004
 707.00  1.0018E-003
 707.50  1.0452E-003
 708.00  1.0905E-003
 708.50  1.1382E-003
 709.00  1.1883E-003
 709.50  1.2404E-003
 710.00  1.2949E-003
 710.50  1.3517E-003
 711.00  1.4102E-003
 711.50  1.4712E-003
 712.00  1.5346E-003
 712.50  1.6003E-003
 713.00  1.6679E-003
 713.50  1.7368E-003
 714.00  1.8065E-003
 714.50  1.8770E-003
 715.00  1.9486E-003
 715.50  2.0212E-003
 716.00  2.0950E-003
 716.50  2.1696E-003
 717.00  2.2442E-003
 717.50  2.3175E-003
 718.00  2.3879E-003
 718.50  2.4539E-003
 719.00  2.5150E-003
 719.50  2.5712E-003
 720.00  2.6237E-003
 720.50  2.6726E-003
 721.00  2.7177E-003
 721.50  2.7587E-003
 722.00  2.7946E-003
 722.50  2.8228E-003
 723.00  2.8424E-003
 723.50  2.8512E-003
 724.00  2.8487E-003
 724.50  2.8353E-003
 725.00  2.8133E-003
 725.50  2.7842E-003
 726.00  2.7503E-003
 726.50  2.7127E-003
 727.00  2.6716E-003
 727.50  2.6271E-003
 728.00  2.5786E-003
 728.50  2.5260E-003
 729.00  2.4695E-003
 729.50  2.4096E-003
 730.00  2.3469E-003
 730.50  2.2819E-003
 731.00  2.2143E-003
 731.50  2.1437E-003
 732.00  2.0690E-003
 732.50  1.9910E-003
 733.00  1.9111E-003
 733.50  1.8309E-003
 734.00  1.7520E-003
 734.50  1.6752E-003
 735.00  1.6005E-003
 735.50  1.5273E-003
 736.00  1.4551E-003
 736.50  1.3840E-003
 737.00  1.3145E-003
 737.50  1.2469E-003
 738.00  1.1820E-003
 738.50  1.1208E-003
 739.00  1.0627E-003
 739.50  1.0079E-003
 740.00  9.5573E-004
 740.50  9.0551E-004
 741.00  8.5694E-004
 741.50  8.1078E-004
 742.00  7.6734E-004
 742.50  7.2657E-004
 743.00  6.8840E-004
 743.50  6.5241E-004
 744.00  6.1821E-004
 744.50  5.8513E-004
 745.00  5.5328E-004
 745.50  5.2297E-004
 746.00  4.9446E-004
 746.50  4.6780E-004
 747.00  4.4362E-004
 747.50  4.2119E-004
 748.00  4.0033E-004
 748.50  3.8066E-004
 749.00  3.6217E-004
 749.50  3.4456E-004
 750.00  3.2786E-004
 750.50  3.1205E-004
 751.00  2.9720E-004
 751.50  2.8317E-004
 752.00  2.6988E-004
 752.50  2.5745E-004
 753.00  2.4581E-004
 753.50  2.3470E-004
 754.00  2.2431E-004
 754.50  2.1446E-004
 755.00  2.0521E-004
 755.50  1.9631E-004
 756.00  1.8790E-004
 756.50  1.7950E-004
 757.00  1.7174E-004
 757.50  1.6435E-004
 758.00  1.5746E-004
 758.50  1.5099E-004
 759.00  1.4515E-004
 759.50  1.3965E-004
 760.00  1.3440E-004
 760.50  1.2941E-004
 761.00  1.2480E-004
 761.50  1.2051E-004
 762.00  1.1640E-004
 762.50  1.1246E-004
 763.00  1.0878E-004
 763.50  1.0557E-004
 764.00  1.0235E-004
 764.50  9.9311E-005
 765.00  9.6520E-005
 765.50  9.3767E-005
 766.00  9.0899E-005
 766.50  8.8249E-005
 767.00  8.5588E-005
 767.50  8.3231E-005
 768.00  8.1157E-005
 768.50  7.9130E-005
 769.00  7.7407E-005
 769.50  7.6011E-005
 770.00  7.4255E-005
 770.50  7.2236E-005
 771.00  7.0596E-005
 771.50  6.8960E-005
 772.00  6.7212E-005
 772.50  6.5950E-005
 773.00  6.4856E-005
 773.50  6.3428E-005
 774.00  6.2126E-005
 774.50  6.0739E-005
 775.00  5.9549E-005
 775.50  5.8564E-005
 776.00  5.7607E-005
 776.50  5.6674E-005
 777.00  5.5620E-005
 777.50  5.4243E-005
 778.00  5.2824E-005
 778.50  5.1359E-005
 779.00  4.9723E-005
 779.50  4.8342E-005
 780.00  4.7097E-005
 780.50  4.5919E-005
 781.00  4.4958E-005
 781.50  4.4079E-005
 782.00  4.3061E-005
 782.50  4.1954E-005
 783.00  4.0847E-005
 783.50  3.9534E-005
 784.00  3.8479E-005
 784.50  3.7632E-005
 785.00  3.7088E-005
 785.50  3.6509E-005
 786.00  3.6155E-005
 786.50  3.5826E-005
 787.00  3.5326E-005
 787.50  3.4647E-005
 788.00  3.3987E-005
 788.50  3.3270E-005
 789.00  3.2603E-005
 789.50  3.1931E-005
 790.00  3.1330E-005
 790.50  3.0971E-005
 791.00  3.0426E-005
 791.50  2.9523E-005
 792.00  2.8694E-005
 792.50  2.7830E-005
 793.00  2.6779E-005
 793.50  2.5904E-005
 794.00  2.5278E-005
 794.50  2.4823E-005
 795.00  2.4376E-005
 795.50  2.4046E-005
 796.00  2.3859E-005
 796.50  2.3641E-005
 797.00  2.3296E-005
 797.50  2.2780E-005
 798.00  2.2096E-005
 798.50  2.1379E-005
 799.00  2.0657E-005
 799.50  1.9839E-005
 800.00  1.9172E-005
 800.50  1.8782E-005
 801.00  1.8560E-005
 801.50  1.8274E-005
 802.00  1.8297E-005
 802.50  1.8323E-005
 803.00  1.8169E-005
 803.50  1.7741E-005
 804.00  1.7565E-005
 804.50  1.7125E-005
 805.00  1.6719E-005
 805.50  1.6300E-005
 806.00  1.5831E-005
 806.50  1.5358E-005
 807.00  1.4969E-005
 807.50  1.4742E-005
 808.00  1.4799E-005
 808.50  1.4811E-005
 809.00  1.4869E-005
 809.50  1.4808E-005
 810.00  1.4839E-005
 810.50  1.4767E-005
 811.00  1.4663E-005
 811.50  1.4311E-005
 812.00  1.4019E-005
 812.50  1.3458E-005
 813.00  1.3046E-005
 813.50  1.2917E-005
 814.00  1.2930E-005
 814.50  1.3149E-005
 815.00  1.3336E-005
 815.50  1.3483E-005
 816.00  1.3645E-005
 816.50  1.3601E-005
 817.00  1.3246E-005
 817.50  1.2911E-005
 818.00  1.2435E-005
 818.50  1.1850E-005
 819.00  1.1393E-005
 819.50  1.1207E-005
 820.00  1.0884E-005
 820.50  1.0722E-005
 821.00  1.0806E-005
 821.50  1.1040E-005
 822.00  1.1221E-005
 822.50  1.1807E-005
 823.00  1.2299E-005
 823.50  1.2350E-005
 824.00  1.2216E-005
 824.50  1.1753E-005
 825.00  1.0906E-005
 825.50  1.0092E-005
 826.00  9.4791E-006
 826.50  8.9085E-006
 827.00  8.5747E-006
 827.50  8.1116E-006
 828.00  7.5612E-006
 828.50  7.1439E-006
 829.00  7.1619E-006
 829.50  7.1649E-006
 830.00  7.4735E-006
 830.50  7.7305E-006
 831.00  7.9477E-006
 831.50  7.4955E-006
 832.00  7.1472E-006
 832.50  6.8396E-006
 833.00  6.6572E-006
 833.50  6.7576E-006
 834.00  6.8753E-006
 834.50  6.9771E-006
 835.00  7.3732E-006
 835.50  7.7181E-006
 836.00  7.6548E-006
 836.50  7.5798E-006
 837.00  7.7181E-006
 837.50  7.7469E-006
 838.00  7.6836E-006
 838.50  7.7069E-006
 839.00  7.6412E-006
 839.50  7.4347E-006
 840.00  7.0432E-006
 840.50  6.9193E-006
 841.00  6.9514E-006
 841.50  7.1137E-006
 842.00  7.2097E-006
 842.50  7.4006E-006
 843.00  7.4439E-006
 843.50  7.5948E-006
 844.00  7.5416E-006
 844.50  7.3669E-006
 845.00  7.1855E-006
 845.50  7.0541E-006
 846.00  6.9821E-006
 846.50  7.3202E-006
 847.00  7.9455E-006
 847.50  8.3586E-006
 848.00  8.3522E-006
 848.50  8.2356E-006
 849.00  7.9065E-006
 849.50  7.4411E-006
 850.00  7.2083E-006
 850.50  7.1628E-006
 851.00  7.0425E-006
 851.50  6.9054E-006
 852.00  6.8629E-006
 852.50  7.0258E-006
 853.00  6.9669E-006
 853.50  6.8483E-006
 854.00  6.5889E-006
 854.50  6.4309E-006
 855.00  5.9703E-006
 855.50  5.8880E-006
 856.00  5.8544E-006
 856.50  5.9627E-006
 857.00  5.9132E-006
 857.50  6.3628E-006
 858.00  7.0147E-006
 858.50  7.7836E-006
 859.00  8.4123E-006
 859.50  8.8534E-006
 860.00  8.7888E-006
 860.50  8.4230E-006
 861.00  7.7967E-006
 861.50  7.0929E-006
 862.00  7.0596E-006
 862.50  7.0936E-006
 863.00  7.1374E-006
 863.50  6.8281E-006
 864.00  7.0756E-006
 864.50  7.2848E-006
 865.00  7.4515E-006
 865.50  7.2843E-006
 866.00  7.8570E-006
 866.50  8.2280E-006
 867.00  8.2018E-006
 867.50  8.7211E-006
 868.00  9.1821E-006
 868.50  9.7103E-006
 869.00  9.7636E-006
 869.50  9.6805E-006
 870.00  9.5350E-006
 870.50  9.3550E-006
 871.00  9.1984E-006
 871.50  8.8881E-006
 872.00  8.4545E-006
 872.50  8.2453E-006
 873.00  8.7444E-006
 873.50  9.2925E-006
 874.00  9.8927E-006
 874.50  1.0712E-005
 875.00  1.1354E-005
 875.50  1.0816E-005
 876.00  1.0298E-005
 876.50  9.9326E-006
 877.00  9.8578E-006
 877.50  9.9904E-006
 878.00  1.0008E-005
 878.50  9.4687E-006
 879.00  8.8104E-006
 879.50  7.9317E-006
 880.00  6.9615E-006
 880.50  6.5411E-006
 881.00  6.7433E-006
 881.50  7.0675E-006
 882.00  7.8056E-006
 882.50  9.1004E-006
 883.00  1.0290E-005
 883.50  1.0422E-005
 884.00  1.0544E-005
 884.50  1.0746E-005
 885.00  1.0318E-005
 885.50  9.9520E-006
 886.00  1.0133E-005
 886.50  1.0281E-005
 887.00  1.0435E-005
 887.50  1.0636E-005
 888.00  1.1509E-005
 888.50  1.1656E-005
 889.00  1.1299E-005
 889.50  1.0292E-005
 890.00  8.8361E-006
 890.50  7.5154E-006
 891.00  7.1554E-006
 891.50  6.8953E-006
 892.00  7.5541E-006
 892.50  8.7577E-006
 893.00  1.0240E-005
 893.50  1.0764E-005
 894.00  1.0929E-005
 894.50  1.0261E-005
 895.00  9.1700E-006
 895.50  7.9193E-006
 896.00  7.1207E-006
 896.50  6.5773E-006
 897.00  6.4615E-006
 897.50  6.3100E-006
 898.00  6.1111E-006
 898.50  6.2120E-006
 899.00  5.8243E-006
 899.50  4.8882E-006
 900.00  4.2945E-006
 900.50  4.5448E-006
 901.00  4.9309E-006
 901.50  5.8162E-006
 902.00  6.4309E-006
 902.50  7.0235E-006
 903.00  6.5843E-006
 903.50  5.7766E-006
 904.00  5.6120E-006
 904.50  6.3736E-006
 905.00  6.6282E-006
 905.50  7.3872E-006
 906.00  8.2799E-006
 906.50  9.1609E-006
 907.00  9.8549E-006
 907.50  1.0334E-005
 908.00  1.0202E-005
 908.50  9.5418E-006
 909.00  8.2810E-006
 909.50  6.6807E-006
 910.00  4.9543E-006
 910.50  3.3297E-006
 911.00  2.2777E-006
 911.50  1.8661E-006
 912.00  1.8605E-006
 912.50  2.3342E-006
 913.00  3.0488E-006
 913.50  3.8732E-006
 914.00  4.3823E-006
 914.50  4.7480E-006
 915.00  5.1453E-006
 915.50  6.1535E-006
 916.00  6.9718E-006
 916.50  7.2337E-006
 917.00  7.9490E-006
 917.50  8.2308E-006
 918.00  7.6421E-006
 918.50  7.0832E-006
 919.00  7.6556E-006
 919.50  7.8450E-006
 920.00  8.7021E-006
 920.50  8.7443E-006
 921.00  8.4749E-006
 921.50  7.8888E-006
 922.00  7.0135E-006
 922.50  6.0355E-006
 923.00  5.8400E-006
 923.50  5.5657E-006
 924.00  5.2097E-006
 924.50  4.9188E-006
 925.00  4.7855E-006
 925.50  5.0850E-006
 926.00  5.9099E-006
 926.50  6.6541E-006
 927.00  7.8027E-006
 927.50  8.9448E-006
 928.00  1.0635E-005
 928.50  1.2263E-005
 929.00  1.3554E-005
 929.50  1.4223E-005
 930.00  1.5729E-005
 930.50  1.5851E-005
 931.00  1.4928E-005
 931.50  1.3996E-005
 932.00  1.2381E-005
 932.50  1.0153E-005
 933.00  8.8883E-006
 933.50  8.5091E-006
 934.00  8.9334E-006
 934.50  9.4358E-006
 935.00  8.7753E-006
 935.50  8.1019E-006
 936.00  7.5919E-006
 936.50  6.6080E-006
 937.00  5.8635E-006
 937.50  5.3680E-006
 938.00  4.5199E-006
 938.50  3.5276E-006
 939.00  2.7331E-006
 939.50  2.4207E-006
 940.00  2.1299E-006
 940.50  1.7411E-006
 941.00  2.0523E-006
 941.50  2.7297E-006
 942.00  3.5791E-006
 942.50  4.5878E-006
 943.00  5.9350E-006
 943.50  7.1028E-006
 944.00  9.3461E-006
 944.50  1.1559E-005
 945.00  1.2366E-005
 945.50  1.2555E-005
 946.00  1.3235E-005
 946.50  1.1405E-005
 947.00  9.4182E-006
 947.50  9.9574E-006
 948.00  1.0796E-005
 948.50  1.1104E-005
 949.00  1.1876E-005
 949.50  1.1756E-005
 950.00  1.0924E-005
 950.50  9.8031E-006
 951.00  8.6452E-006
 951.50  8.4574E-006
 952.00  8.3318E-006
 952.50  7.3672E-006
 953.00  6.3658E-006
 953.50  5.4590E-006
 954.00  4.8207E-006
 954.50  4.9815E-006
 955.00  6.3696E-006
 955.50  7.9548E-006
 956.00  8.1711E-006
 956.50  7.0649E-006
 957.00  5.6377E-006
 957.50  3.3903E-006
 958.00  1.4552E-006
 958.50  1.4798E-006
 959.00  1.3881E-006
 959.50  2.0950E-006
 960.00  3.7403E-006
 960.50  5.6884E-006
 961.00  6.1694E-006
 961.50  7.6135E-006
 962.00  7.0373E-006
 962.50  6.6371E-006
 963.00  5.7837E-006
 963.50  6.1308E-006
 964.00  5.6915E-006
 964.50  6.0986E-006
 965.00  6.5536E-006
 965.50  8.0038E-006
 966.00  1.0089E-005
 966.50  1.2465E-005
 967.00  1.4200E-005
 967.50  1.4687E-005
 968.00  1.2548E-005
 968.50  9.8494E-006
 969.00  9.5402E-006
 969.50  9.7336E-006
 970.00  1.0252E-005
 970.50  1.1569E-005
 971.00  1.3274E-005
 971.50  1.4685E-005
 972.00  1.5161E-005
 972.50  1.6401E-005
 973.00  1.7580E-005
 973.50  1.6508E-005
 974.00  1.4989E-005
 974.50  1.4479E-005
 975.00  1.2355E-005
 975.50  1.2573E-005
 976.00  1.1926E-005
 976.50  1.1111E-005
 977.00  1.0214E-005
 977.50  9.3262E-006
 978.00  6.0292E-006
 978.50  7.6311E-006
 979.00  9.5666E-006
 979.50  1.0100E-005
 980.00  1.1851E-005
 980.50  1.4115E-005
 981.00  1.4282E-005
 981.50  1.2351E-005
 982.00  1.1748E-005
 982.50  1.0332E-005
 983.00  1.0117E-005
 983.50  6.9696E-006
 984.00  6.5503E-006
 984.50  6.2137E-006
 985.00  7.4394E-006
 985.50  7.6211E-006
 986.00  1.0110E-005
 986.50  1.3119E-005
 987.00  1.6130E-005
 987.50  1.8884E-005
 988.00  1.8899E-005
 988.50  1.6697E-005
 989.00  1.2822E-005
 989.50  7.7236E-006
 990.00  2.4872E-006
 990.50  0.0000E+000
 991.00  0.0000E+000
 991.50  0.0000E+000
 992.00  1.2800E-006
 992.50  4.8529E-006
 993.00  7.4801E-006
 993.50  1.0937E-005
 994.00  1.4613E-005
 994.50  2.3561E-005
 995.00  2.8220E-005
 995.50  2.9483E-005
 996.00  3.2919E-005
 996.50  3.6839E-005
 997.00  3.0921E-005
 997.50  3.1777E-005
 998.00  3.6373E-005
 998.50  3.3564E-005
 999.00  2.6983E-005
 999.50  2.2080E-005
1000.00  1.2097E-005
1000.50  5.8697E-007
1001.00  0.0000E+000
1001.50  0.0000E+000
1002.00  0.0000E+000
1002.50  0.0000E+000
1003.00  0.0000E+000
1003.50  0.0000E+000
1004.00  0.0000E+000
1004.50  0.0000E+000
1005.00  0.0000E+000
1005.50  0.0000E+000
1006.00  0.0000E+000
1006.50  0.0000E+000
1007.00  0.0000E+000
1007.50  0.0000E+000
1008.00  0.0000E+000
1008.50  0.0000E+000
1009.00  0.0000E+000
1009.50  0.0000E+000
1010.00  0.0000E+000
1010.50  0.0000E+000
1011.00  0.0000E+000
1011.50  0.0000E+000
1012.00  0.0000E+000
1012.50  0.0000E+000
1013.00  0.0000E+000
1013.50  0.0000E+000
1014.00  0.0000E+000
1014.50  0.0000E+000
1015.00  0.0000E+000
1015.50  0.0000E+000
1016.00  0.0000E+000
1016.50  0.0000E+000
1017.00  0.0000E+000
1017.50  0.0000E+000
1018.00  0.0000E+000
1018.50  0.0000E+000
1019.00  0.0000E+000
1019.50  0.0000E+000
1020.00  0.0000E+000
1020.50  0.0000E+000
1021.00  0.0000E+000
1021.50  0.0000E+000
1022.00  0.0000E+000
1022.50  0.0000E+000
1023.00  0.0000E+000
1023.50  0.0000E+000
1024.00  0.0000E+000
1024.50  0.0000E+000
1025.00  0.0000E+000
1025.50  0.0000E+000
1026.00  0.0000E+000
1026.50  0.0000E+000
1027.00  0.0000E+000
1027.50  0.0000E+000
1028.00  0.0000E+000
1028.50  0.0000E+000
1029.00  0.0000E+000
1029.50  0.0000E+000
1030.00  0.0000E+000
1030.50  0.0000E+000
1031.00  0.0000E+000
1031.50  0.0000E+000
1032.00  0.0000E+000
1032.50  0.0000E+000
1033.00  0.0000E+000
1033.50  0.0000E+000
1034.00  0.0000E+000
1034.50  0.0000E+000
1035.00  0.0000E+000
1035.50  0.0000E+000
1036.00  0.0000E+000
1036.50  0.0000E+000
1037.00  0.0000E+000
1037.50  0.0000E+000
1038.00  0.0000E+000
1038.50  0.0000E+000
1039.00  0.0000E+000
1039.50  0.0000E+000
1040.00  0.0000E+000
1040.50  0.0000E+000
1041.00  0.0000E+000
1041.50  0.0000E+000
1042.00  0.0000E+000
1042.50  0.0000E+000
1043.00  0.0000E+000
1043.50  0.0000E+000
1044.00  0.0000E+000
1044.50  0.0000E+000
1045.00  0.0000E+000
1045.50  0.0000E+000
1046.00  0.0000E+000
1046.50  0.0000E+000
1047.00  0.0000E+000
1047.50  0.0000E+000
1048.00  0.0000E+000
1048.50  0.0000E+000
1049.00  0.0000E+000
1049.50  0.0000E+000
1050.00  0.0000E+000
1050.50  0.0000E+000
1051.00  0.0000E+000
1051.50  0.0000E+000
1052.00  0.0000E+000
1052.50  0.0000E+000
1053.00  0.0000E+000
1053.50  0.0000E+000
1054.00  0.0000E+000
1054.50  0.0000E+000
1055.00  0.0000E+000
1055.50  0.0000E+000
1056.00  0.0000E+000
1056.50  0.0000E+000
1057.00  0.0000E+000
1057.50  0.0000E+000
1058.00  0.0000E+000
1058.50  0.0000E+000
1059.00  0.0000E+000
1059.50  0.0000E+000
1060.00  0.0000E+000
1060.50  0.0000E+000
1061.00  0.0000E+000
1061.50  0.0000E+000
1062.00  0.0000E+000
1062.50  0.0000E+000
1063.00  0.0000E+000
1063.50  0.0000E+000
1064.00  0.0000E+000
1064.50  0.0000E+000
1065.00  0.0000E+000
1065.50  0.0000E+000
1066.00  0.0000E+000
1066.50  0.0000E+000
1067.00  0.0000E+000
1067.50  0.0000E+000
1068.00  0.0000E+000
1068.50  0.0000E+000
1069.00  0.0000E+000
1069.50  0.0000E+000
1070.00  0.0000E+000
1070.50  0.0000E+000
1071.00  0.0000E+000
1071.50  0.0000E+000
1072.00  0.0000E+000
1072.50  0.0000E+000
1073.00  0.0000E+000
1073.50  0.0000E+000
1074.00  0.0000E+000
1074.50  0.0000E+000
1075.00  0.0000E+000
1075.50  0.0000E+000
1076.00  0.0000E+000
1076.50  0.0000E+000
1077.00  0.0000E+000
1077.50  0.0000E+000
1078.00  0.0000E+000
1078.50  0.0000E+000
1079.00  0.0000E+000
1079.50  0.0000E+000
1080.00  0.0000E+000
1080.50  0.0000E+000
1081.00  0.0000E+000
1081.50  0.0000E+000
1082.00  0.0000E+000
1082.50  0.0000E+000
1083.00  0.0000E+000
1083.50  0.0000E+000
1084.00  0.0000E+000
1084.50  0.0000E+000
1085.00  0.0000E+000
1085.50  0.0000E+000
1086.00  0.0000E+000
1086.50  0.0000E+000
1087.00  0.0000E+000
1087.50  0.0000E+000
1088.00  0.0000E+000
1088.50  0.0000E+000
1089.00  0.0000E+000
1089.50  0.0000E+000
1090.00  0.0000E+000
1090.50  0.0000E+000
1091.00  0.0000E+000
1091.50  0.0000E+000
1092.00  0.0000E+000
1092.50  0.0000E+000
1093.00  0.0000E+000
1093.50  0.0000E+000
1094.00  0.0000E+000
1094.50  0.0000E+000
1095.00  0.0000E+000
1095.50  0.0000E+000
1096.00  0.0000E+000
1096.50  0.0000E+000
1097.00  0.0000E+000
1097.50  0.0000E+000
1098.00  0.0000E+000
1098.50  0.0000E+000
1099.00  0.0000E+000
1099.50  0.0000E+000
1100.00  0.0000E+000
1100.50  0.0000E+000
1101.00  0.0000E+000
1101.50  0.0000E+000
1102.00  0.0000E+000
1102.50  0.0000E+000
1103.00  0.0000E+000
1103.50  0.0000E+000
1104.00  0.0000E+000
1104.50  0.0000E+000
1105.00  0.0000E+000
1105.50  0.0000E+000
1106.00  0.0000E+000
1106.50  0.0000E+000
1107.00  0.0000E+000
1107.50  0.0000E+000
1108.00  0.0000E+000
1108.50  0.0000E+000
1109.00  0.0000E+000
1109.50  0.0000E+000
1110.00  0.0000E+000
1110.50  0.0000E+000
1111.00  0.0000E+000
1111.50  0.0000E+000
1112.00  0.0000E+000
1112.50  0.0000E+000
1113.00  0.0000E+000
1113.50  0.0000E+000
1114.00  0.0000E+000
1114.50  0.0000E+000
1115.00  0.0000E+000
1115.50  0.0000E+000
1116.00  0.0000E+000
1116.50  0.0000E+000
1117.00  0.0000E+000
1117.50  0.0000E+000
1118.00  0.0000E+000
1118.50  0.0000E+000
1119.00  0.0000E+000
1119.50  0.0000E+000
1120.00  0.0000E+000
1120.50  0.0000E+000
1121.00  0.0000E+000
1121.50  0.0000E+000
1122.00  0.0000E+000
1122.50  0.0000E+000
1123.00  0.0000E+000
1123.50  0.0000E+000
1124.00  0.0000E+000
1124.50  0.0000E+000
1125.00  0.0000E+000
1125.50  0.0000E+000
1126.00  0.0000E+000
1126.50  0.0000E+000
1127.00  0.0000E+000
1127.50  0.0000E+000
: 6
