" File: 160128_ReferenceSpectra\19.IRR
" RAD->  Wave:366.44nm  Pix:434  Val:  0.000  Time:300ms  Avg:5  Sm:1  Sg:1  Tc:off  SNAP  Xt:1  Ch:1  Xtrig wnmcal >RAD-IS6.CAL
 180.00  0.0000E+000
 180.50  0.0000E+000
 181.00  0.0000E+000
 181.50  0.0000E+000
 182.00  0.0000E+000
 182.50  0.0000E+000
 183.00  0.0000E+000
 183.50  0.0000E+000
 184.00  0.0000E+000
 184.50  0.0000E+000
 185.00  0.0000E+000
 185.50  0.0000E+000
 186.00  0.0000E+000
 186.50  0.0000E+000
 187.00  0.0000E+000
 187.50  0.0000E+000
 188.00  0.0000E+000
 188.50  0.0000E+000
 189.00  0.0000E+000
 189.50  0.0000E+000
 190.00  0.0000E+000
 190.50  0.0000E+000
 191.00  0.0000E+000
 191.50  0.0000E+000
 192.00  0.0000E+000
 192.50  0.0000E+000
 193.00  0.0000E+000
 193.50  0.0000E+000
 194.00  0.0000E+000
 194.50  0.0000E+000
 195.00  0.0000E+000
 195.50  0.0000E+000
 196.00  0.0000E+000
 196.50  0.0000E+000
 197.00  0.0000E+000
 197.50  0.0000E+000
 198.00  0.0000E+000
 198.50  0.0000E+000
 199.00  0.0000E+000
 199.50  0.0000E+000
 200.00  0.0000E+000
 200.50  0.0000E+000
 201.00  0.0000E+000
 201.50  0.0000E+000
 202.00  0.0000E+000
 202.50  0.0000E+000
 203.00  0.0000E+000
 203.50  0.0000E+000
 204.00  0.0000E+000
 204.50  0.0000E+000
 205.00  0.0000E+000
 205.50  0.0000E+000
 206.00  0.0000E+000
 206.50  0.0000E+000
 207.00  0.0000E+000
 207.50  0.0000E+000
 208.00  0.0000E+000
 208.50  0.0000E+000
 209.00  0.0000E+000
 209.50  0.0000E+000
 210.00  0.0000E+000
 210.50  0.0000E+000
 211.00  0.0000E+000
 211.50  0.0000E+000
 212.00  0.0000E+000
 212.50  0.0000E+000
 213.00  0.0000E+000
 213.50  0.0000E+000
 214.00  0.0000E+000
 214.50  0.0000E+000
 215.00  0.0000E+000
 215.50  0.0000E+000
 216.00  0.0000E+000
 216.50  0.0000E+000
 217.00  0.0000E+000
 217.50  0.0000E+000
 218.00  0.0000E+000
 218.50  0.0000E+000
 219.00  0.0000E+000
 219.50  0.0000E+000
 220.00  0.0000E+000
 220.50  0.0000E+000
 221.00  0.0000E+000
 221.50  0.0000E+000
 222.00  0.0000E+000
 222.50  0.0000E+000
 223.00  0.0000E+000
 223.50  0.0000E+000
 224.00  0.0000E+000
 224.50  0.0000E+000
 225.00  0.0000E+000
 225.50  0.0000E+000
 226.00  0.0000E+000
 226.50  0.0000E+000
 227.00  0.0000E+000
 227.50  0.0000E+000
 228.00  0.0000E+000
 228.50  0.0000E+000
 229.00  0.0000E+000
 229.50  0.0000E+000
 230.00  0.0000E+000
 230.50  0.0000E+000
 231.00  0.0000E+000
 231.50  0.0000E+000
 232.00  0.0000E+000
 232.50  0.0000E+000
 233.00  0.0000E+000
 233.50  0.0000E+000
 234.00  0.0000E+000
 234.50  0.0000E+000
 235.00  0.0000E+000
 235.50  0.0000E+000
 236.00  0.0000E+000
 236.50  0.0000E+000
 237.00  0.0000E+000
 237.50  0.0000E+000
 238.00  0.0000E+000
 238.50  0.0000E+000
 239.00  0.0000E+000
 239.50  0.0000E+000
 240.00  0.0000E+000
 240.50  0.0000E+000
 241.00  0.0000E+000
 241.50  0.0000E+000
 242.00  0.0000E+000
 242.50  0.0000E+000
 243.00  0.0000E+000
 243.50  0.0000E+000
 244.00  0.0000E+000
 244.50  0.0000E+000
 245.00  0.0000E+000
 245.50  0.0000E+000
 246.00  0.0000E+000
 246.50  0.0000E+000
 247.00  0.0000E+000
 247.50  0.0000E+000
 248.00  0.0000E+000
 248.50  0.0000E+000
 249.00  0.0000E+000
 249.50  0.0000E+000
 250.00  0.0000E+000
 250.50  0.0000E+000
 251.00  0.0000E+000
 251.50  0.0000E+000
 252.00  0.0000E+000
 252.50  0.0000E+000
 253.00  0.0000E+000
 253.50  0.0000E+000
 254.00  0.0000E+000
 254.50  0.0000E+000
 255.00  0.0000E+000
 255.50  0.0000E+000
 256.00  0.0000E+000
 256.50  0.0000E+000
 257.00  0.0000E+000
 257.50  0.0000E+000
 258.00  0.0000E+000
 258.50  0.0000E+000
 259.00  0.0000E+000
 259.50  0.0000E+000
 260.00  0.0000E+000
 260.50  0.0000E+000
 261.00  0.0000E+000
 261.50  0.0000E+000
 262.00  0.0000E+000
 262.50  0.0000E+000
 263.00  0.0000E+000
 263.50  0.0000E+000
 264.00  0.0000E+000
 264.50  0.0000E+000
 265.00  0.0000E+000
 265.50  0.0000E+000
 266.00  0.0000E+000
 266.50  0.0000E+000
 267.00  0.0000E+000
 267.50  0.0000E+000
 268.00  0.0000E+000
 268.50  0.0000E+000
 269.00  0.0000E+000
 269.50  0.0000E+000
 270.00  0.0000E+000
 270.50  0.0000E+000
 271.00  0.0000E+000
 271.50  0.0000E+000
 272.00  0.0000E+000
 272.50  0.0000E+000
 273.00  0.0000E+000
 273.50  0.0000E+000
 274.00  0.0000E+000
 274.50  0.0000E+000
 275.00  0.0000E+000
 275.50  0.0000E+000
 276.00  0.0000E+000
 276.50  0.0000E+000
 277.00  0.0000E+000
 277.50  0.0000E+000
 278.00  0.0000E+000
 278.50  0.0000E+000
 279.00  0.0000E+000
 279.50  0.0000E+000
 280.00  0.0000E+000
 280.50  0.0000E+000
 281.00  0.0000E+000
 281.50  0.0000E+000
 282.00  0.0000E+000
 282.50  0.0000E+000
 283.00  0.0000E+000
 283.50  0.0000E+000
 284.00  0.0000E+000
 284.50  0.0000E+000
 285.00  0.0000E+000
 285.50  0.0000E+000
 286.00  0.0000E+000
 286.50  0.0000E+000
 287.00  0.0000E+000
 287.50  0.0000E+000
 288.00  0.0000E+000
 288.50  0.0000E+000
 289.00  0.0000E+000
 289.50  0.0000E+000
 290.00  0.0000E+000
 290.50  0.0000E+000
 291.00  0.0000E+000
 291.50  0.0000E+000
 292.00  0.0000E+000
 292.50  0.0000E+000
 293.00  0.0000E+000
 293.50  0.0000E+000
 294.00  0.0000E+000
 294.50  0.0000E+000
 295.00  0.0000E+000
 295.50  0.0000E+000
 296.00  0.0000E+000
 296.50  0.0000E+000
 297.00  0.0000E+000
 297.50  0.0000E+000
 298.00  0.0000E+000
 298.50  0.0000E+000
 299.00  0.0000E+000
 299.50  0.0000E+000
 300.00  0.0000E+000
 300.50  0.0000E+000
 301.00  0.0000E+000
 301.50  0.0000E+000
 302.00  0.0000E+000
 302.50  0.0000E+000
 303.00  0.0000E+000
 303.50  0.0000E+000
 304.00  0.0000E+000
 304.50  0.0000E+000
 305.00  0.0000E+000
 305.50  0.0000E+000
 306.00  0.0000E+000
 306.50  0.0000E+000
 307.00  0.0000E+000
 307.50  0.0000E+000
 308.00  0.0000E+000
 308.50  0.0000E+000
 309.00  0.0000E+000
 309.50  0.0000E+000
 310.00  0.0000E+000
 310.50  0.0000E+000
 311.00  0.0000E+000
 311.50  0.0000E+000
 312.00  0.0000E+000
 312.50  0.0000E+000
 313.00  0.0000E+000
 313.50  0.0000E+000
 314.00  0.0000E+000
 314.50  0.0000E+000
 315.00  0.0000E+000
 315.50  0.0000E+000
 316.00  0.0000E+000
 316.50  0.0000E+000
 317.00  0.0000E+000
 317.50  0.0000E+000
 318.00  0.0000E+000
 318.50  0.0000E+000
 319.00  0.0000E+000
 319.50  0.0000E+000
 320.00  0.0000E+000
 320.50  0.0000E+000
 321.00  0.0000E+000
 321.50  0.0000E+000
 322.00  0.0000E+000
 322.50  0.0000E+000
 323.00  0.0000E+000
 323.50  0.0000E+000
 324.00  0.0000E+000
 324.50  0.0000E+000
 325.00  0.0000E+000
 325.50  0.0000E+000
 326.00  0.0000E+000
 326.50  0.0000E+000
 327.00  0.0000E+000
 327.50  0.0000E+000
 328.00  0.0000E+000
 328.50  0.0000E+000
 329.00  0.0000E+000
 329.50  0.0000E+000
 330.00  0.0000E+000
 330.50  0.0000E+000
 331.00  0.0000E+000
 331.50  0.0000E+000
 332.00  0.0000E+000
 332.50  0.0000E+000
 333.00  0.0000E+000
 333.50  0.0000E+000
 334.00  0.0000E+000
 334.50  0.0000E+000
 335.00  0.0000E+000
 335.50  0.0000E+000
 336.00  0.0000E+000
 336.50  0.0000E+000
 337.00  0.0000E+000
 337.50  0.0000E+000
 338.00  0.0000E+000
 338.50  0.0000E+000
 339.00  0.0000E+000
 339.50  0.0000E+000
 340.00  0.0000E+000
 340.50  0.0000E+000
 341.00  0.0000E+000
 341.50  0.0000E+000
 342.00  0.0000E+000
 342.50  0.0000E+000
 343.00  0.0000E+000
 343.50  0.0000E+000
 344.00  0.0000E+000
 344.50  0.0000E+000
 345.00  0.0000E+000
 345.50  0.0000E+000
 346.00  0.0000E+000
 346.50  0.0000E+000
 347.00  0.0000E+000
 347.50  0.0000E+000
 348.00  0.0000E+000
 348.50  0.0000E+000
 349.00  0.0000E+000
 349.50  0.0000E+000
 350.00  0.0000E+000
 350.50  0.0000E+000
 351.00  0.0000E+000
 351.50  0.0000E+000
 352.00  0.0000E+000
 352.50  0.0000E+000
 353.00  0.0000E+000
 353.50  0.0000E+000
 354.00  0.0000E+000
 354.50  0.0000E+000
 355.00  0.0000E+000
 355.50  0.0000E+000
 356.00  0.0000E+000
 356.50  0.0000E+000
 357.00  0.0000E+000
 357.50  0.0000E+000
 358.00  0.0000E+000
 358.50  0.0000E+000
 359.00  0.0000E+000
 359.50  9.2406E-010
 360.00  3.1534E-008
 360.50  7.1794E-008
 361.00  1.0807E-007
 361.50  1.5133E-007
 362.00  1.8169E-007
 362.50  1.9934E-007
 363.00  1.9886E-007
 363.50  1.7298E-007
 364.00  1.2885E-007
 364.50  9.7911E-008
 365.00  6.8664E-008
 365.50  5.2229E-008
 366.00  6.9507E-008
 366.50  8.4470E-008
 367.00  9.4292E-008
 367.50  9.9901E-008
 368.00  1.0203E-007
 368.50  8.3422E-008
 369.00  5.1294E-008
 369.50  4.9122E-008
 370.00  7.3005E-008
 370.50  1.1513E-007
 371.00  1.4515E-007
 371.50  1.7613E-007
 372.00  1.7684E-007
 372.50  1.4618E-007
 373.00  1.2729E-007
 373.50  1.3346E-007
 374.00  1.7008E-007
 374.50  1.8447E-007
 375.00  1.8788E-007
 375.50  1.9868E-007
 376.00  1.7264E-007
 376.50  1.3717E-007
 377.00  1.1700E-007
 377.50  7.5989E-008
 378.00  4.0505E-008
 378.50  0.0000E+000
 379.00  0.0000E+000
 379.50  0.0000E+000
 380.00  4.5611E-009
 380.50  4.3878E-008
 381.00  1.2024E-007
 381.50  1.9363E-007
 382.00  2.4832E-007
 382.50  2.9074E-007
 383.00  3.0547E-007
 383.50  3.3900E-007
 384.00  3.3851E-007
 384.50  3.0946E-007
 385.00  2.8348E-007
 385.50  2.5420E-007
 386.00  2.3090E-007
 386.50  2.3034E-007
 387.00  2.6190E-007
 387.50  2.4075E-007
 388.00  2.7628E-007
 388.50  2.8980E-007
 389.00  2.6458E-007
 389.50  2.3047E-007
 390.00  1.9293E-007
 390.50  1.5031E-007
 391.00  2.0713E-007
 391.50  2.4921E-007
 392.00  2.8464E-007
 392.50  3.6076E-007
 393.00  3.9340E-007
 393.50  3.6007E-007
 394.00  3.7253E-007
 394.50  3.1110E-007
 395.00  2.3443E-007
 395.50  2.2874E-007
 396.00  2.3826E-007
 396.50  2.8968E-007
 397.00  3.3157E-007
 397.50  2.9382E-007
 398.00  2.7413E-007
 398.50  2.4890E-007
 399.00  2.4039E-007
 399.50  2.8510E-007
 400.00  3.0383E-007
 400.50  2.7805E-007
 401.00  2.1076E-007
 401.50  1.3052E-007
 402.00  1.0768E-007
 402.50  1.0357E-007
 403.00  1.1004E-007
 403.50  1.3524E-007
 404.00  1.2799E-007
 404.50  6.5442E-008
 405.00  2.7802E-008
 405.50  0.0000E+000
 406.00  0.0000E+000
 406.50  0.0000E+000
 407.00  4.6308E-009
 407.50  1.9513E-008
 408.00  5.6640E-008
 408.50  1.3110E-007
 409.00  1.8767E-007
 409.50  2.7452E-007
 410.00  3.8793E-007
 410.50  4.9385E-007
 411.00  5.5179E-007
 411.50  5.7555E-007
 412.00  5.6866E-007
 412.50  5.0405E-007
 413.00  4.4762E-007
 413.50  3.4253E-007
 414.00  2.2874E-007
 414.50  9.8216E-008
 415.00  1.2516E-008
 415.50  0.0000E+000
 416.00  0.0000E+000
 416.50  0.0000E+000
 417.00  1.1995E-008
 417.50  1.1456E-008
 418.00  2.1726E-008
 418.50  2.6667E-008
 419.00  4.7866E-008
 419.50  5.7175E-008
 420.00  1.0169E-007
 420.50  1.6021E-007
 421.00  2.5199E-007
 421.50  3.7959E-007
 422.00  4.2263E-007
 422.50  4.4729E-007
 423.00  4.3010E-007
 423.50  3.8610E-007
 424.00  3.5620E-007
 424.50  3.6576E-007
 425.00  3.7765E-007
 425.50  3.9186E-007
 426.00  3.7793E-007
 426.50  3.3695E-007
 427.00  3.2849E-007
 427.50  2.8386E-007
 428.00  1.9440E-007
 428.50  1.4509E-007
 429.00  1.3306E-007
 429.50  1.5692E-007
 430.00  1.9168E-007
 430.50  2.4251E-007
 431.00  2.5967E-007
 431.50  1.9596E-007
 432.00  1.5905E-007
 432.50  1.2072E-007
 433.00  9.0822E-008
 433.50  9.0732E-008
 434.00  8.4808E-008
 434.50  1.3874E-007
 435.00  1.6984E-007
 435.50  1.9921E-007
 436.00  2.4427E-007
 436.50  3.2056E-007
 437.00  3.6856E-007
 437.50  4.5605E-007
 438.00  5.1139E-007
 438.50  4.8070E-007
 439.00  4.1442E-007
 439.50  3.6274E-007
 440.00  2.9456E-007
 440.50  2.1189E-007
 441.00  2.2269E-007
 441.50  2.1997E-007
 442.00  2.1391E-007
 442.50  2.2008E-007
 443.00  2.4875E-007
 443.50  2.4003E-007
 444.00  2.1093E-007
 444.50  1.9845E-007
 445.00  1.5169E-007
 445.50  9.1609E-008
 446.00  5.5914E-008
 446.50  4.1578E-008
 447.00  3.4631E-008
 447.50  6.4205E-008
 448.00  8.1580E-008
 448.50  7.4172E-008
 449.00  6.1024E-008
 449.50  5.4640E-008
 450.00  3.5614E-008
 450.50  5.5741E-008
 451.00  9.2975E-008
 451.50  1.3046E-007
 452.00  1.7114E-007
 452.50  1.9768E-007
 453.00  1.9095E-007
 453.50  1.8323E-007
 454.00  1.6012E-007
 454.50  1.1380E-007
 455.00  1.0664E-007
 455.50  9.7941E-008
 456.00  8.1352E-008
 456.50  5.2617E-008
 457.00  3.3558E-008
 457.50  1.1474E-008
 458.00  9.6219E-010
 458.50  3.4213E-009
 459.00  1.1810E-008
 459.50  4.0475E-008
 460.00  6.0277E-008
 460.50  8.8139E-008
 461.00  8.6657E-008
 461.50  8.5170E-008
 462.00  9.1384E-008
 462.50  9.4918E-008
 463.00  1.0550E-007
 463.50  1.1623E-007
 464.00  1.1973E-007
 464.50  1.0855E-007
 465.00  1.1108E-007
 465.50  1.1934E-007
 466.00  1.2518E-007
 466.50  1.4132E-007
 467.00  1.6686E-007
 467.50  1.8658E-007
 468.00  2.2128E-007
 468.50  2.5208E-007
 469.00  2.8131E-007
 469.50  2.7287E-007
 470.00  3.1938E-007
 470.50  3.6111E-007
 471.00  3.8626E-007
 471.50  3.7208E-007
 472.00  3.4570E-007
 472.50  3.0498E-007
 473.00  2.4502E-007
 473.50  2.3575E-007
 474.00  2.3717E-007
 474.50  2.2568E-007
 475.00  1.9325E-007
 475.50  1.6789E-007
 476.00  1.5490E-007
 476.50  1.3482E-007
 477.00  1.1620E-007
 477.50  1.0940E-007
 478.00  1.0711E-007
 478.50  1.2555E-007
 479.00  1.2271E-007
 479.50  1.3191E-007
 480.00  1.4294E-007
 480.50  1.3353E-007
 481.00  1.2267E-007
 481.50  1.2963E-007
 482.00  1.2296E-007
 482.50  1.0953E-007
 483.00  1.1113E-007
 483.50  1.2750E-007
 484.00  1.2418E-007
 484.50  1.3405E-007
 485.00  1.4176E-007
 485.50  1.4003E-007
 486.00  1.4260E-007
 486.50  1.5655E-007
 487.00  1.7610E-007
 487.50  1.8593E-007
 488.00  1.8873E-007
 488.50  1.7330E-007
 489.00  1.5861E-007
 489.50  1.2417E-007
 490.00  9.8645E-008
 490.50  8.3891E-008
 491.00  9.6284E-008
 491.50  1.0744E-007
 492.00  1.2822E-007
 492.50  1.7255E-007
 493.00  1.9508E-007
 493.50  1.6881E-007
 494.00  1.5681E-007
 494.50  1.0574E-007
 495.00  4.6362E-008
 495.50  1.5547E-008
 496.00  4.7926E-009
 496.50  2.8674E-009
 497.00  3.1442E-009
 497.50  3.4855E-009
 498.00  1.1795E-008
 498.50  2.2922E-008
 499.00  3.8403E-008
 499.50  5.2507E-008
 500.00  4.7016E-008
 500.50  3.0003E-008
 501.00  6.0334E-009
 501.50  8.2094E-010
 502.00  0.0000E+000
 502.50  0.0000E+000
 503.00  0.0000E+000
 503.50  0.0000E+000
 504.00  1.5918E-008
 504.50  4.0390E-008
 505.00  5.2575E-008
 505.50  4.3063E-008
 506.00  3.3454E-008
 506.50  3.7045E-008
 507.00  4.9703E-008
 507.50  8.4385E-008
 508.00  1.0347E-007
 508.50  9.7178E-008
 509.00  1.1430E-007
 509.50  1.6622E-007
 510.00  2.0402E-007
 510.50  2.2939E-007
 511.00  2.4184E-007
 511.50  2.3697E-007
 512.00  2.1128E-007
 512.50  1.9021E-007
 513.00  1.6630E-007
 513.50  1.4521E-007
 514.00  1.2430E-007
 514.50  1.1749E-007
 515.00  1.0940E-007
 515.50  1.1346E-007
 516.00  1.0761E-007
 516.50  1.0531E-007
 517.00  1.1161E-007
 517.50  1.2358E-007
 518.00  1.2707E-007
 518.50  1.1853E-007
 519.00  1.1877E-007
 519.50  1.2251E-007
 520.00  1.0878E-007
 520.50  1.2205E-007
 521.00  1.1094E-007
 521.50  9.1019E-008
 522.00  9.2831E-008
 522.50  9.5172E-008
 523.00  1.0954E-007
 523.50  1.4681E-007
 524.00  1.8509E-007
 524.50  2.2138E-007
 525.00  2.5674E-007
 525.50  2.7461E-007
 526.00  2.9658E-007
 526.50  2.9472E-007
 527.00  2.8612E-007
 527.50  2.7298E-007
 528.00  2.3472E-007
 528.50  2.1294E-007
 529.00  2.2523E-007
 529.50  2.2411E-007
 530.00  2.4931E-007
 530.50  2.8196E-007
 531.00  2.5228E-007
 531.50  2.6638E-007
 532.00  2.8059E-007
 532.50  2.8231E-007
 533.00  3.2915E-007
 533.50  3.9897E-007
 534.00  4.9034E-007
 534.50  5.4483E-007
 535.00  5.7396E-007
 535.50  5.7711E-007
 536.00  5.1735E-007
 536.50  4.5168E-007
 537.00  4.3143E-007
 537.50  4.3210E-007
 538.00  4.2655E-007
 538.50  3.9561E-007
 539.00  3.8079E-007
 539.50  3.5834E-007
 540.00  3.1859E-007
 540.50  3.0068E-007
 541.00  2.7791E-007
 541.50  2.7884E-007
 542.00  1.9102E-007
 542.50  1.3370E-007
 543.00  1.2848E-007
 543.50  1.0769E-007
 544.00  1.2221E-007
 544.50  1.7554E-007
 545.00  1.8350E-007
 545.50  1.8229E-007
 546.00  1.8773E-007
 546.50  2.0211E-007
 547.00  2.2625E-007
 547.50  2.4382E-007
 548.00  2.4092E-007
 548.50  2.2605E-007
 549.00  2.1175E-007
 549.50  1.9663E-007
 550.00  2.3892E-007
 550.50  3.4846E-007
 551.00  4.0772E-007
 551.50  4.5795E-007
 552.00  5.1873E-007
 552.50  5.3127E-007
 553.00  5.0088E-007
 553.50  4.7366E-007
 554.00  4.1361E-007
 554.50  3.4906E-007
 555.00  3.1638E-007
 555.50  3.2124E-007
 556.00  3.8030E-007
 556.50  4.6383E-007
 557.00  5.0718E-007
 557.50  5.1943E-007
 558.00  5.7633E-007
 558.50  5.4806E-007
 559.00  4.7342E-007
 559.50  3.8840E-007
 560.00  3.1098E-007
 560.50  2.5850E-007
 561.00  2.5669E-007
 561.50  3.0918E-007
 562.00  4.0970E-007
 562.50  4.3703E-007
 563.00  4.3567E-007
 563.50  4.8620E-007
 564.00  4.8982E-007
 564.50  4.8846E-007
 565.00  5.3162E-007
 565.50  5.4980E-007
 566.00  5.4312E-007
 566.50  5.1016E-007
 567.00  4.9900E-007
 567.50  4.8427E-007
 568.00  4.5203E-007
 568.50  4.2571E-007
 569.00  4.4105E-007
 569.50  5.1311E-007
 570.00  5.6053E-007
 570.50  6.3070E-007
 571.00  7.3614E-007
 571.50  7.5686E-007
 572.00  6.9482E-007
 572.50  6.5635E-007
 573.00  5.9818E-007
 573.50  4.9924E-007
 574.00  4.4277E-007
 574.50  4.4251E-007
 575.00  4.2102E-007
 575.50  3.9730E-007
 576.00  4.1913E-007
 576.50  4.1447E-007
 577.00  3.9223E-007
 577.50  3.8308E-007
 578.00  3.5012E-007
 578.50  3.7847E-007
 579.00  4.2963E-007
 579.50  4.6634E-007
 580.00  4.5687E-007
 580.50  4.3742E-007
 581.00  4.1714E-007
 581.50  4.3653E-007
 582.00  4.7099E-007
 582.50  5.7583E-007
 583.00  6.5081E-007
 583.50  6.9567E-007
 584.00  7.3152E-007
 584.50  6.9167E-007
 585.00  6.8349E-007
 585.50  7.1061E-007
 586.00  6.7909E-007
 586.50  6.7293E-007
 587.00  6.7765E-007
 587.50  5.7323E-007
 588.00  4.9189E-007
 588.50  4.5410E-007
 589.00  4.3119E-007
 589.50  4.8661E-007
 590.00  5.6291E-007
 590.50  5.7140E-007
 591.00  5.9080E-007
 591.50  6.6325E-007
 592.00  6.9247E-007
 592.50  8.0368E-007
 593.00  8.8039E-007
 593.50  1.0660E-006
 594.00  1.1982E-006
 594.50  1.2727E-006
 595.00  1.3259E-006
 595.50  1.3395E-006
 596.00  1.2472E-006
 596.50  1.1517E-006
 597.00  1.1189E-006
 597.50  1.1315E-006
 598.00  1.1859E-006
 598.50  1.2194E-006
 599.00  1.2922E-006
 599.50  1.3702E-006
 600.00  1.3931E-006
 600.50  1.4726E-006
 601.00  1.5531E-006
 601.50  1.5196E-006
 602.00  1.4966E-006
 602.50  1.5175E-006
 603.00  1.5212E-006
 603.50  1.5280E-006
 604.00  1.5140E-006
 604.50  1.4318E-006
 605.00  1.3394E-006
 605.50  1.2297E-006
 606.00  1.1902E-006
 606.50  1.1517E-006
 607.00  1.1502E-006
 607.50  1.1579E-006
 608.00  1.1654E-006
 608.50  1.2787E-006
 609.00  1.5178E-006
 609.50  1.6102E-006
 610.00  1.6462E-006
 610.50  1.7233E-006
 611.00  1.6194E-006
 611.50  1.5176E-006
 612.00  1.6085E-006
 612.50  1.6223E-006
 613.00  1.6703E-006
 613.50  1.7745E-006
 614.00  1.8151E-006
 614.50  1.8290E-006
 615.00  1.9043E-006
 615.50  1.9951E-006
 616.00  2.0436E-006
 616.50  2.1656E-006
 617.00  2.2712E-006
 617.50  2.3192E-006
 618.00  2.3413E-006
 618.50  2.4344E-006
 619.00  2.5231E-006
 619.50  2.5865E-006
 620.00  2.6853E-006
 620.50  2.7660E-006
 621.00  2.8243E-006
 621.50  2.9042E-006
 622.00  2.9461E-006
 622.50  2.9445E-006
 623.00  2.8773E-006
 623.50  2.8622E-006
 624.00  2.8343E-006
 624.50  2.8389E-006
 625.00  2.9014E-006
 625.50  2.9273E-006
 626.00  2.9004E-006
 626.50  2.8386E-006
 627.00  2.7095E-006
 627.50  2.5779E-006
 628.00  2.5338E-006
 628.50  2.5513E-006
 629.00  2.6410E-006
 629.50  2.7281E-006
 630.00  2.7730E-006
 630.50  2.7755E-006
 631.00  2.8273E-006
 631.50  2.9635E-006
 632.00  3.1777E-006
 632.50  3.4039E-006
 633.00  3.6358E-006
 633.50  3.7598E-006
 634.00  3.7635E-006
 634.50  3.7344E-006
 635.00  3.7231E-006
 635.50  3.6254E-006
 636.00  3.6569E-006
 636.50  3.7416E-006
 637.00  3.8637E-006
 637.50  3.9533E-006
 638.00  4.1195E-006
 638.50  4.1959E-006
 639.00  4.2313E-006
 639.50  4.2768E-006
 640.00  4.3062E-006
 640.50  4.3756E-006
 641.00  4.4605E-006
 641.50  4.6039E-006
 642.00  4.7685E-006
 642.50  4.9543E-006
 643.00  5.1882E-006
 643.50  5.4556E-006
 644.00  5.6664E-006
 644.50  5.8238E-006
 645.00  6.0079E-006
 645.50  6.1898E-006
 646.00  6.2333E-006
 646.50  6.3161E-006
 647.00  6.5631E-006
 647.50  6.7143E-006
 648.00  6.8392E-006
 648.50  7.0990E-006
 649.00  7.4078E-006
 649.50  7.4990E-006
 650.00  7.7651E-006
 650.50  8.2055E-006
 651.00  8.5070E-006
 651.50  8.7316E-006
 652.00  9.0487E-006
 652.50  9.3275E-006
 653.00  9.4374E-006
 653.50  9.6318E-006
 654.00  9.9116E-006
 654.50  1.0139E-005
 655.00  1.0487E-005
 655.50  1.0773E-005
 656.00  1.1086E-005
 656.50  1.1261E-005
 657.00  1.1518E-005
 657.50  1.1606E-005
 658.00  1.1863E-005
 658.50  1.2167E-005
 659.00  1.2605E-005
 659.50  1.3053E-005
 660.00  1.3480E-005
 660.50  1.3920E-005
 661.00  1.4298E-005
 661.50  1.4485E-005
 662.00  1.4709E-005
 662.50  1.4931E-005
 663.00  1.5167E-005
 663.50  1.5348E-005
 664.00  1.5748E-005
 664.50  1.6318E-005
 665.00  1.6908E-005
 665.50  1.7600E-005
 666.00  1.8316E-005
 666.50  1.8963E-005
 667.00  1.9551E-005
 667.50  2.0132E-005
 668.00  2.0725E-005
 668.50  2.1220E-005
 669.00  2.1754E-005
 669.50  2.2346E-005
 670.00  2.3037E-005
 670.50  2.3705E-005
 671.00  2.4779E-005
 671.50  2.5790E-005
 672.00  2.6891E-005
 672.50  2.8066E-005
 673.00  2.9232E-005
 673.50  3.0411E-005
 674.00  3.1561E-005
 674.50  3.2670E-005
 675.00  3.3666E-005
 675.50  3.4631E-005
 676.00  3.5683E-005
 676.50  3.6869E-005
 677.00  3.8078E-005
 677.50  3.9528E-005
 678.00  4.1039E-005
 678.50  4.2577E-005
 679.00  4.4132E-005
 679.50  4.5623E-005
 680.00  4.7144E-005
 680.50  4.8756E-005
 681.00  5.0446E-005
 681.50  5.2267E-005
 682.00  5.4261E-005
 682.50  5.6329E-005
 683.00  5.8522E-005
 683.50  6.0707E-005
 684.00  6.2814E-005
 684.50  6.4964E-005
 685.00  6.7242E-005
 685.50  6.9398E-005
 686.00  7.1866E-005
 686.50  7.4634E-005
 687.00  7.7943E-005
 687.50  8.1174E-005
 688.00  8.4644E-005
 688.50  8.8266E-005
 689.00  9.1852E-005
 689.50  9.5508E-005
 690.00  9.9399E-005
 690.50  1.0342E-004
 691.00  1.0762E-004
 691.50  1.1187E-004
 692.00  1.1643E-004
 692.50  1.2109E-004
 693.00  1.2580E-004
 693.50  1.3066E-004
 694.00  1.3571E-004
 694.50  1.4087E-004
 695.00  1.4629E-004
 695.50  1.5201E-004
 696.00  1.5805E-004
 696.50  1.6442E-004
 697.00  1.7105E-004
 697.50  1.7792E-004
 698.00  1.8520E-004
 698.50  1.9259E-004
 699.00  2.0008E-004
 699.50  2.0766E-004
 700.00  2.1537E-004
 700.50  2.2287E-004
 701.00  2.3062E-004
 701.50  2.3877E-004
 702.00  2.4762E-004
 702.50  2.5706E-004
 703.00  2.6709E-004
 703.50  2.7751E-004
 704.00  2.8818E-004
 704.50  2.9907E-004
 705.00  3.1014E-004
 705.50  3.2159E-004
 706.00  3.3347E-004
 706.50  3.4590E-004
 707.00  3.5921E-004
 707.50  3.7347E-004
 708.00  3.8845E-004
 708.50  4.0395E-004
 709.00  4.1996E-004
 709.50  4.3621E-004
 710.00  4.5309E-004
 710.50  4.7082E-004
 711.00  4.8942E-004
 711.50  5.0906E-004
 712.00  5.2967E-004
 712.50  5.5092E-004
 713.00  5.7291E-004
 713.50  5.9537E-004
 714.00  6.1835E-004
 714.50  6.4190E-004
 715.00  6.6674E-004
 715.50  6.9249E-004
 716.00  7.1975E-004
 716.50  7.4845E-004
 717.00  7.7828E-004
 717.50  8.0869E-004
 718.00  8.3954E-004
 718.50  8.7029E-004
 719.00  9.0120E-004
 719.50  9.3286E-004
 720.00  9.6604E-004
 720.50  1.0009E-003
 721.00  1.0374E-003
 721.50  1.0761E-003
 722.00  1.1166E-003
 722.50  1.1586E-003
 723.00  1.2021E-003
 723.50  1.2464E-003
 724.00  1.2909E-003
 724.50  1.3359E-003
 725.00  1.3821E-003
 725.50  1.4303E-003
 726.00  1.4815E-003
 726.50  1.5362E-003
 727.00  1.5939E-003
 727.50  1.6542E-003
 728.00  1.7170E-003
 728.50  1.7814E-003
 729.00  1.8480E-003
 729.50  1.9167E-003
 730.00  1.9880E-003
 730.50  2.0618E-003
 731.00  2.1384E-003
 731.50  2.2173E-003
 732.00  2.2968E-003
 732.50  2.3767E-003
 733.00  2.4575E-003
 733.50  2.5390E-003
 734.00  2.6220E-003
 734.50  2.7067E-003
 735.00  2.7919E-003
 735.50  2.8756E-003
 736.00  2.9564E-003
 736.50  3.0334E-003
 737.00  3.1064E-003
 737.50  3.1747E-003
 738.00  3.2388E-003
 738.50  3.2998E-003
 739.00  3.3568E-003
 739.50  3.4080E-003
 740.00  3.4516E-003
 740.50  3.4850E-003
 741.00  3.5065E-003
 741.50  3.5180E-003
 742.00  3.5216E-003
 742.50  3.5181E-003
 743.00  3.5082E-003
 743.50  3.4912E-003
 744.00  3.4657E-003
 744.50  3.4308E-003
 745.00  3.3881E-003
 745.50  3.3382E-003
 746.00  3.2834E-003
 746.50  3.2245E-003
 747.00  3.1615E-003
 747.50  3.0943E-003
 748.00  3.0221E-003
 748.50  2.9445E-003
 749.00  2.8633E-003
 749.50  2.7786E-003
 750.00  2.6907E-003
 750.50  2.6013E-003
 751.00  2.5104E-003
 751.50  2.4188E-003
 752.00  2.3271E-003
 752.50  2.2361E-003
 753.00  2.1461E-003
 753.50  2.0577E-003
 754.00  1.9717E-003
 754.50  1.8879E-003
 755.00  1.8056E-003
 755.50  1.7253E-003
 756.00  1.6474E-003
 756.50  1.5715E-003
 757.00  1.4994E-003
 757.50  1.4309E-003
 758.00  1.3654E-003
 758.50  1.3027E-003
 759.00  1.2431E-003
 759.50  1.1863E-003
 760.00  1.1319E-003
 760.50  1.0795E-003
 761.00  1.0296E-003
 761.50  9.8182E-004
 762.00  9.3628E-004
 762.50  8.9314E-004
 763.00  8.5167E-004
 763.50  8.1189E-004
 764.00  7.7360E-004
 764.50  7.3611E-004
 765.00  6.9985E-004
 765.50  6.6582E-004
 766.00  6.3378E-004
 766.50  6.0358E-004
 767.00  5.7526E-004
 767.50  5.4852E-004
 768.00  5.2307E-004
 768.50  4.9871E-004
 769.00  4.7568E-004
 769.50  4.5446E-004
 770.00  4.3427E-004
 770.50  4.1510E-004
 771.00  3.9738E-004
 771.50  3.8074E-004
 772.00  3.6401E-004
 772.50  3.4830E-004
 773.00  3.3266E-004
 773.50  3.1724E-004
 774.00  3.0229E-004
 774.50  2.8842E-004
 775.00  2.7549E-004
 775.50  2.6318E-004
 776.00  2.5125E-004
 776.50  2.3995E-004
 777.00  2.2915E-004
 777.50  2.1879E-004
 778.00  2.0945E-004
 778.50  2.0080E-004
 779.00  1.9252E-004
 779.50  1.8494E-004
 780.00  1.7786E-004
 780.50  1.7124E-004
 781.00  1.6521E-004
 781.50  1.5947E-004
 782.00  1.5389E-004
 782.50  1.4856E-004
 783.00  1.4339E-004
 783.50  1.3805E-004
 784.00  1.3316E-004
 784.50  1.2869E-004
 785.00  1.2439E-004
 785.50  1.2013E-004
 786.00  1.1659E-004
 786.50  1.1320E-004
 787.00  1.0993E-004
 787.50  1.0701E-004
 788.00  1.0432E-004
 788.50  1.0175E-004
 789.00  9.9239E-005
 789.50  9.6611E-005
 790.00  9.3979E-005
 790.50  9.1326E-005
 791.00  8.8491E-005
 791.50  8.5636E-005
 792.00  8.3117E-005
 792.50  8.0786E-005
 793.00  7.8992E-005
 793.50  7.7271E-005
 794.00  7.5665E-005
 794.50  7.3932E-005
 795.00  7.2154E-005
 795.50  7.0285E-005
 796.00  6.8724E-005
 796.50  6.7424E-005
 797.00  6.5895E-005
 797.50  6.4164E-005
 798.00  6.2375E-005
 798.50  6.0562E-005
 799.00  5.9090E-005
 799.50  5.7659E-005
 800.00  5.6132E-005
 800.50  5.4721E-005
 801.00  5.3217E-005
 801.50  5.1685E-005
 802.00  5.0350E-005
 802.50  4.9321E-005
 803.00  4.8501E-005
 803.50  4.7291E-005
 804.00  4.6321E-005
 804.50  4.5428E-005
 805.00  4.4494E-005
 805.50  4.3315E-005
 806.00  4.2118E-005
 806.50  4.0871E-005
 807.00  3.9752E-005
 807.50  3.8730E-005
 808.00  3.8156E-005
 808.50  3.7883E-005
 809.00  3.7473E-005
 809.50  3.6980E-005
 810.00  3.6787E-005
 810.50  3.6210E-005
 811.00  3.5390E-005
 811.50  3.4546E-005
 812.00  3.3393E-005
 812.50  3.1909E-005
 813.00  3.0623E-005
 813.50  2.9532E-005
 814.00  2.8470E-005
 814.50  2.7807E-005
 815.00  2.7537E-005
 815.50  2.7216E-005
 816.00  2.6950E-005
 816.50  2.6858E-005
 817.00  2.6449E-005
 817.50  2.5720E-005
 818.00  2.5042E-005
 818.50  2.4497E-005
 819.00  2.3906E-005
 819.50  2.3380E-005
 820.00  2.2807E-005
 820.50  2.2326E-005
 821.00  2.1958E-005
 821.50  2.1797E-005
 822.00  2.1824E-005
 822.50  2.2151E-005
 823.00  2.2337E-005
 823.50  2.2619E-005
 824.00  2.2966E-005
 824.50  2.3223E-005
 825.00  2.3295E-005
 825.50  2.3106E-005
 826.00  2.2732E-005
 826.50  2.2842E-005
 827.00  2.2862E-005
 827.50  2.2516E-005
 828.00  2.2151E-005
 828.50  2.1480E-005
 829.00  2.0453E-005
 829.50  1.9718E-005
 830.00  1.9194E-005
 830.50  1.8827E-005
 831.00  1.8283E-005
 831.50  1.7553E-005
 832.00  1.6770E-005
 832.50  1.6435E-005
 833.00  1.6280E-005
 833.50  1.6242E-005
 834.00  1.6430E-005
 834.50  1.6827E-005
 835.00  1.7224E-005
 835.50  1.7312E-005
 836.00  1.6965E-005
 836.50  1.6757E-005
 837.00  1.6475E-005
 837.50  1.6114E-005
 838.00  1.6119E-005
 838.50  1.6278E-005
 839.00  1.6215E-005
 839.50  1.6251E-005
 840.00  1.6622E-005
 840.50  1.6847E-005
 841.00  1.6545E-005
 841.50  1.6203E-005
 842.00  1.5884E-005
 842.50  1.5124E-005
 843.00  1.4588E-005
 843.50  1.4860E-005
 844.00  1.5155E-005
 844.50  1.5017E-005
 845.00  1.4792E-005
 845.50  1.4504E-005
 846.00  1.4099E-005
 846.50  1.4047E-005
 847.00  1.4456E-005
 847.50  1.4792E-005
 848.00  1.4883E-005
 848.50  1.4870E-005
 849.00  1.4395E-005
 849.50  1.3744E-005
 850.00  1.3718E-005
 850.50  1.3700E-005
 851.00  1.3453E-005
 851.50  1.3353E-005
 852.00  1.3294E-005
 852.50  1.2628E-005
 853.00  1.1920E-005
 853.50  1.1575E-005
 854.00  1.1291E-005
 854.50  1.0628E-005
 855.00  1.0500E-005
 855.50  1.0645E-005
 856.00  1.0648E-005
 856.50  1.0463E-005
 857.00  1.0321E-005
 857.50  1.0357E-005
 858.00  1.0553E-005
 858.50  1.0774E-005
 859.00  1.1339E-005
 859.50  1.1978E-005
 860.00  1.2219E-005
 860.50  1.2365E-005
 861.00  1.2134E-005
 861.50  1.1336E-005
 862.00  1.0228E-005
 862.50  1.0123E-005
 863.00  9.9952E-006
 863.50  9.8184E-006
 864.00  1.0682E-005
 864.50  1.3043E-005
 865.00  1.3741E-005
 865.50  1.4176E-005
 866.00  1.5665E-005
 866.50  1.6135E-005
 867.00  1.5846E-005
 867.50  1.5628E-005
 868.00  1.6690E-005
 868.50  1.6561E-005
 869.00  1.6822E-005
 869.50  1.7266E-005
 870.00  1.7609E-005
 870.50  1.6808E-005
 871.00  1.6688E-005
 871.50  1.6312E-005
 872.00  1.5888E-005
 872.50  1.6821E-005
 873.00  1.8521E-005
 873.50  1.9224E-005
 874.00  1.9779E-005
 874.50  1.9614E-005
 875.00  1.8517E-005
 875.50  1.7345E-005
 876.00  1.7010E-005
 876.50  1.5818E-005
 877.00  1.5431E-005
 877.50  1.4180E-005
 878.00  1.2846E-005
 878.50  1.1951E-005
 879.00  1.1929E-005
 879.50  1.1820E-005
 880.00  1.2008E-005
 880.50  1.2268E-005
 881.00  1.2144E-005
 881.50  1.1630E-005
 882.00  1.1415E-005
 882.50  1.1981E-005
 883.00  1.2731E-005
 883.50  1.2513E-005
 884.00  1.2422E-005
 884.50  1.2316E-005
 885.00  1.1352E-005
 885.50  1.0783E-005
 886.00  1.0870E-005
 886.50  1.0865E-005
 887.00  1.0789E-005
 887.50  1.0532E-005
 888.00  1.0388E-005
 888.50  1.0149E-005
 889.00  9.7748E-006
 889.50  9.3024E-006
 890.00  8.4247E-006
 890.50  7.2290E-006
 891.00  6.0781E-006
 891.50  4.6991E-006
 892.00  3.5616E-006
 892.50  3.4670E-006
 893.00  3.9055E-006
 893.50  4.6925E-006
 894.00  5.7326E-006
 894.50  7.1972E-006
 895.00  8.5237E-006
 895.50  9.8771E-006
 896.00  1.0792E-005
 896.50  1.0791E-005
 897.00  1.0010E-005
 897.50  8.7490E-006
 898.00  7.4740E-006
 898.50  7.1193E-006
 899.00  7.3811E-006
 899.50  8.1481E-006
 900.00  9.1997E-006
 900.50  1.0677E-005
 901.00  1.1444E-005
 901.50  1.1757E-005
 902.00  1.1173E-005
 902.50  1.0286E-005
 903.00  8.5434E-006
 903.50  8.0494E-006
 904.00  7.5183E-006
 904.50  7.6963E-006
 905.00  7.9313E-006
 905.50  8.3717E-006
 906.00  8.0899E-006
 906.50  8.8102E-006
 907.00  9.0224E-006
 907.50  9.1262E-006
 908.00  9.1538E-006
 908.50  9.2711E-006
 909.00  9.2601E-006
 909.50  9.5576E-006
 910.00  1.0188E-005
 910.50  1.0689E-005
 911.00  1.0951E-005
 911.50  1.1128E-005
 912.00  1.0272E-005
 912.50  8.8800E-006
 913.00  7.6087E-006
 913.50  6.2482E-006
 914.00  5.0138E-006
 914.50  5.2011E-006
 915.00  5.2156E-006
 915.50  5.0611E-006
 916.00  5.1637E-006
 916.50  5.0315E-006
 917.00  4.8935E-006
 917.50  5.4896E-006
 918.00  5.9978E-006
 918.50  6.3800E-006
 919.00  6.8227E-006
 919.50  7.2184E-006
 920.00  6.8879E-006
 920.50  6.3902E-006
 921.00  5.8603E-006
 921.50  5.1156E-006
 922.00  4.1930E-006
 922.50  3.5563E-006
 923.00  3.7489E-006
 923.50  4.4572E-006
 924.00  5.5945E-006
 924.50  7.8536E-006
 925.00  1.0434E-005
 925.50  1.2164E-005
 926.00  1.3565E-005
 926.50  1.3881E-005
 927.00  1.2582E-005
 927.50  1.1719E-005
 928.00  1.0557E-005
 928.50  9.4024E-006
 929.00  9.8800E-006
 929.50  1.1098E-005
 930.00  1.2236E-005
 930.50  1.3270E-005
 931.00  1.3848E-005
 931.50  1.3431E-005
 932.00  1.2526E-005
 932.50  1.2502E-005
 933.00  1.3305E-005
 933.50  1.4658E-005
 934.00  1.5377E-005
 934.50  1.4807E-005
 935.00  1.1672E-005
 935.50  9.4536E-006
 936.00  7.8410E-006
 936.50  7.2235E-006
 937.00  7.9774E-006
 937.50  1.0155E-005
 938.00  1.1343E-005
 938.50  1.1498E-005
 939.00  1.1141E-005
 939.50  1.0485E-005
 940.00  9.8972E-006
 940.50  1.0260E-005
 941.00  1.1277E-005
 941.50  1.2837E-005
 942.00  1.4244E-005
 942.50  1.5396E-005
 943.00  1.6165E-005
 943.50  1.8482E-005
 944.00  1.9723E-005
 944.50  2.1781E-005
 945.00  2.1090E-005
 945.50  1.8639E-005
 946.00  1.4992E-005
 946.50  1.2412E-005
 947.00  8.7358E-006
 947.50  8.4756E-006
 948.00  8.9100E-006
 948.50  8.7220E-006
 949.00  8.8885E-006
 949.50  9.5962E-006
 950.00  1.0771E-005
 950.50  1.3632E-005
 951.00  1.7251E-005
 951.50  1.9858E-005
 952.00  2.3179E-005
 952.50  2.5317E-005
 953.00  2.4688E-005
 953.50  2.3890E-005
 954.00  2.3802E-005
 954.50  2.2626E-005
 955.00  2.1103E-005
 955.50  2.1409E-005
 956.00  2.2300E-005
 956.50  2.2657E-005
 957.00  2.4385E-005
 957.50  2.7036E-005
 958.00  2.7107E-005
 958.50  2.5920E-005
 959.00  2.2638E-005
 959.50  1.8049E-005
 960.00  1.3582E-005
 960.50  1.1868E-005
 961.00  1.0068E-005
 961.50  1.0555E-005
 962.00  1.2107E-005
 962.50  1.4332E-005
 963.00  1.4282E-005
 963.50  1.6431E-005
 964.00  1.5304E-005
 964.50  1.3248E-005
 965.00  9.5528E-006
 965.50  7.8975E-006
 966.00  6.4054E-006
 966.50  7.8356E-006
 967.00  9.9428E-006
 967.50  1.2200E-005
 968.00  1.3106E-005
 968.50  1.2536E-005
 969.00  1.0679E-005
 969.50  9.0938E-006
 970.00  8.9495E-006
 970.50  9.7911E-006
 971.00  1.1493E-005
 971.50  1.3891E-005
 972.00  1.4239E-005
 972.50  1.3052E-005
 973.00  1.1868E-005
 973.50  1.1163E-005
 974.00  1.1377E-005
 974.50  1.4298E-005
 975.00  1.6790E-005
 975.50  1.8434E-005
 976.00  1.9377E-005
 976.50  1.8207E-005
 977.00  1.4788E-005
 977.50  1.0168E-005
 978.00  5.6342E-006
 978.50  1.8049E-006
 979.00  1.0232E-006
 979.50  7.4792E-007
 980.00  2.4332E-006
 980.50  3.1869E-006
 981.00  3.7653E-006
 981.50  1.6412E-006
 982.00  0.0000E+000
 982.50  0.0000E+000
 983.00  0.0000E+000
 983.50  3.6086E-007
 984.00  4.6189E-006
 984.50  1.0370E-005
 985.00  1.2954E-005
 985.50  1.7213E-005
 986.00  2.1405E-005
 986.50  2.2831E-005
 987.00  2.3870E-005
 987.50  2.6963E-005
 988.00  2.8144E-005
 988.50  2.7341E-005
 989.00  2.9674E-005
 989.50  3.2367E-005
 990.00  3.6467E-005
 990.50  4.2350E-005
 991.00  4.6592E-005
 991.50  4.9615E-005
 992.00  5.2174E-005
 992.50  5.0754E-005
 993.00  4.4779E-005
 993.50  3.7421E-005
 994.00  3.0213E-005
 994.50  2.8709E-005
 995.00  2.3833E-005
 995.50  2.2196E-005
 996.00  2.1839E-005
 996.50  2.2791E-005
 997.00  1.6925E-005
 997.50  1.6801E-005
 998.00  1.6639E-005
 998.50  1.7383E-005
 999.00  1.2619E-005
 999.50  1.1231E-005
1000.00  4.5046E-006
1000.50  2.0535E-007
1001.00  0.0000E+000
1001.50  0.0000E+000
1002.00  0.0000E+000
1002.50  0.0000E+000
1003.00  0.0000E+000
1003.50  0.0000E+000
1004.00  0.0000E+000
1004.50  0.0000E+000
1005.00  0.0000E+000
1005.50  0.0000E+000
1006.00  0.0000E+000
1006.50  0.0000E+000
1007.00  0.0000E+000
1007.50  0.0000E+000
1008.00  0.0000E+000
1008.50  0.0000E+000
1009.00  0.0000E+000
1009.50  0.0000E+000
1010.00  0.0000E+000
1010.50  0.0000E+000
1011.00  0.0000E+000
1011.50  0.0000E+000
1012.00  0.0000E+000
1012.50  0.0000E+000
1013.00  0.0000E+000
1013.50  0.0000E+000
1014.00  0.0000E+000
1014.50  0.0000E+000
1015.00  0.0000E+000
1015.50  0.0000E+000
1016.00  0.0000E+000
1016.50  0.0000E+000
1017.00  0.0000E+000
1017.50  0.0000E+000
1018.00  0.0000E+000
1018.50  0.0000E+000
1019.00  0.0000E+000
1019.50  0.0000E+000
1020.00  0.0000E+000
1020.50  0.0000E+000
1021.00  0.0000E+000
1021.50  0.0000E+000
1022.00  0.0000E+000
1022.50  0.0000E+000
1023.00  0.0000E+000
1023.50  0.0000E+000
1024.00  0.0000E+000
1024.50  0.0000E+000
1025.00  0.0000E+000
1025.50  0.0000E+000
1026.00  0.0000E+000
1026.50  0.0000E+000
1027.00  0.0000E+000
1027.50  0.0000E+000
1028.00  0.0000E+000
1028.50  0.0000E+000
1029.00  0.0000E+000
1029.50  0.0000E+000
1030.00  0.0000E+000
1030.50  0.0000E+000
1031.00  0.0000E+000
1031.50  0.0000E+000
1032.00  0.0000E+000
1032.50  0.0000E+000
1033.00  0.0000E+000
1033.50  0.0000E+000
1034.00  0.0000E+000
1034.50  0.0000E+000
1035.00  0.0000E+000
1035.50  0.0000E+000
1036.00  0.0000E+000
1036.50  0.0000E+000
1037.00  0.0000E+000
1037.50  0.0000E+000
1038.00  0.0000E+000
1038.50  0.0000E+000
1039.00  0.0000E+000
1039.50  0.0000E+000
1040.00  0.0000E+000
1040.50  0.0000E+000
1041.00  0.0000E+000
1041.50  0.0000E+000
1042.00  0.0000E+000
1042.50  0.0000E+000
1043.00  0.0000E+000
1043.50  0.0000E+000
1044.00  0.0000E+000
1044.50  0.0000E+000
1045.00  0.0000E+000
1045.50  0.0000E+000
1046.00  0.0000E+000
1046.50  0.0000E+000
1047.00  0.0000E+000
1047.50  0.0000E+000
1048.00  0.0000E+000
1048.50  0.0000E+000
1049.00  0.0000E+000
1049.50  0.0000E+000
1050.00  0.0000E+000
1050.50  0.0000E+000
1051.00  0.0000E+000
1051.50  0.0000E+000
1052.00  0.0000E+000
1052.50  0.0000E+000
1053.00  0.0000E+000
1053.50  0.0000E+000
1054.00  0.0000E+000
1054.50  0.0000E+000
1055.00  0.0000E+000
1055.50  0.0000E+000
1056.00  0.0000E+000
1056.50  0.0000E+000
1057.00  0.0000E+000
1057.50  0.0000E+000
1058.00  0.0000E+000
1058.50  0.0000E+000
1059.00  0.0000E+000
1059.50  0.0000E+000
1060.00  0.0000E+000
1060.50  0.0000E+000
1061.00  0.0000E+000
1061.50  0.0000E+000
1062.00  0.0000E+000
1062.50  0.0000E+000
1063.00  0.0000E+000
1063.50  0.0000E+000
1064.00  0.0000E+000
1064.50  0.0000E+000
1065.00  0.0000E+000
1065.50  0.0000E+000
1066.00  0.0000E+000
1066.50  0.0000E+000
1067.00  0.0000E+000
1067.50  0.0000E+000
1068.00  0.0000E+000
1068.50  0.0000E+000
1069.00  0.0000E+000
1069.50  0.0000E+000
1070.00  0.0000E+000
1070.50  0.0000E+000
1071.00  0.0000E+000
1071.50  0.0000E+000
1072.00  0.0000E+000
1072.50  0.0000E+000
1073.00  0.0000E+000
1073.50  0.0000E+000
1074.00  0.0000E+000
1074.50  0.0000E+000
1075.00  0.0000E+000
1075.50  0.0000E+000
1076.00  0.0000E+000
1076.50  0.0000E+000
1077.00  0.0000E+000
1077.50  0.0000E+000
1078.00  0.0000E+000
1078.50  0.0000E+000
1079.00  0.0000E+000
1079.50  0.0000E+000
1080.00  0.0000E+000
1080.50  0.0000E+000
1081.00  0.0000E+000
1081.50  0.0000E+000
1082.00  0.0000E+000
1082.50  0.0000E+000
1083.00  0.0000E+000
1083.50  0.0000E+000
1084.00  0.0000E+000
1084.50  0.0000E+000
1085.00  0.0000E+000
1085.50  0.0000E+000
1086.00  0.0000E+000
1086.50  0.0000E+000
1087.00  0.0000E+000
1087.50  0.0000E+000
1088.00  0.0000E+000
1088.50  0.0000E+000
1089.00  0.0000E+000
1089.50  0.0000E+000
1090.00  0.0000E+000
1090.50  0.0000E+000
1091.00  0.0000E+000
1091.50  0.0000E+000
1092.00  0.0000E+000
1092.50  0.0000E+000
1093.00  0.0000E+000
1093.50  0.0000E+000
1094.00  0.0000E+000
1094.50  0.0000E+000
1095.00  0.0000E+000
1095.50  0.0000E+000
1096.00  0.0000E+000
1096.50  0.0000E+000
1097.00  0.0000E+000
1097.50  0.0000E+000
1098.00  0.0000E+000
1098.50  0.0000E+000
1099.00  0.0000E+000
1099.50  0.0000E+000
1100.00  0.0000E+000
1100.50  0.0000E+000
1101.00  0.0000E+000
1101.50  0.0000E+000
1102.00  0.0000E+000
1102.50  0.0000E+000
1103.00  0.0000E+000
1103.50  0.0000E+000
1104.00  0.0000E+000
1104.50  0.0000E+000
1105.00  0.0000E+000
1105.50  0.0000E+000
1106.00  0.0000E+000
1106.50  0.0000E+000
1107.00  0.0000E+000
1107.50  0.0000E+000
1108.00  0.0000E+000
1108.50  0.0000E+000
1109.00  0.0000E+000
1109.50  0.0000E+000
1110.00  0.0000E+000
1110.50  0.0000E+000
1111.00  0.0000E+000
1111.50  0.0000E+000
1112.00  0.0000E+000
1112.50  0.0000E+000
1113.00  0.0000E+000
1113.50  0.0000E+000
1114.00  0.0000E+000
1114.50  0.0000E+000
1115.00  0.0000E+000
1115.50  0.0000E+000
1116.00  0.0000E+000
1116.50  0.0000E+000
1117.00  0.0000E+000
1117.50  0.0000E+000
1118.00  0.0000E+000
1118.50  0.0000E+000
1119.00  0.0000E+000
1119.50  0.0000E+000
1120.00  0.0000E+000
1120.50  0.0000E+000
1121.00  0.0000E+000
1121.50  0.0000E+000
1122.00  0.0000E+000
1122.50  0.0000E+000
1123.00  0.0000E+000
1123.50  0.0000E+000
1124.00  0.0000E+000
1124.50  0.0000E+000
1125.00  0.0000E+000
1125.50  0.0000E+000
1126.00  0.0000E+000
1126.50  0.0000E+000
1127.00  0.0000E+000
1127.50  0.0000E+000
: 6
