" File: 160128_ReferenceSpectra\20.IRR
" RAD->  Wave:366.44nm  Pix:434  Val:  0.000  Time:400ms  Avg:5  Sm:1  Sg:1  Tc:off  SNAP  Xt:1  Ch:1  Xtrig wnmcal >RAD-IS6.CAL
 180.00  0.0000E+000
 180.50  0.0000E+000
 181.00  0.0000E+000
 181.50  0.0000E+000
 182.00  0.0000E+000
 182.50  0.0000E+000
 183.00  0.0000E+000
 183.50  0.0000E+000
 184.00  0.0000E+000
 184.50  0.0000E+000
 185.00  0.0000E+000
 185.50  0.0000E+000
 186.00  0.0000E+000
 186.50  0.0000E+000
 187.00  0.0000E+000
 187.50  0.0000E+000
 188.00  0.0000E+000
 188.50  0.0000E+000
 189.00  0.0000E+000
 189.50  0.0000E+000
 190.00  0.0000E+000
 190.50  0.0000E+000
 191.00  0.0000E+000
 191.50  0.0000E+000
 192.00  0.0000E+000
 192.50  0.0000E+000
 193.00  0.0000E+000
 193.50  0.0000E+000
 194.00  0.0000E+000
 194.50  0.0000E+000
 195.00  0.0000E+000
 195.50  0.0000E+000
 196.00  0.0000E+000
 196.50  0.0000E+000
 197.00  0.0000E+000
 197.50  0.0000E+000
 198.00  0.0000E+000
 198.50  0.0000E+000
 199.00  0.0000E+000
 199.50  0.0000E+000
 200.00  0.0000E+000
 200.50  0.0000E+000
 201.00  0.0000E+000
 201.50  0.0000E+000
 202.00  0.0000E+000
 202.50  0.0000E+000
 203.00  0.0000E+000
 203.50  0.0000E+000
 204.00  0.0000E+000
 204.50  0.0000E+000
 205.00  0.0000E+000
 205.50  0.0000E+000
 206.00  0.0000E+000
 206.50  0.0000E+000
 207.00  0.0000E+000
 207.50  0.0000E+000
 208.00  0.0000E+000
 208.50  0.0000E+000
 209.00  0.0000E+000
 209.50  0.0000E+000
 210.00  0.0000E+000
 210.50  0.0000E+000
 211.00  0.0000E+000
 211.50  0.0000E+000
 212.00  0.0000E+000
 212.50  0.0000E+000
 213.00  0.0000E+000
 213.50  0.0000E+000
 214.00  0.0000E+000
 214.50  0.0000E+000
 215.00  0.0000E+000
 215.50  0.0000E+000
 216.00  0.0000E+000
 216.50  0.0000E+000
 217.00  0.0000E+000
 217.50  0.0000E+000
 218.00  0.0000E+000
 218.50  0.0000E+000
 219.00  0.0000E+000
 219.50  0.0000E+000
 220.00  0.0000E+000
 220.50  0.0000E+000
 221.00  0.0000E+000
 221.50  0.0000E+000
 222.00  0.0000E+000
 222.50  0.0000E+000
 223.00  0.0000E+000
 223.50  0.0000E+000
 224.00  0.0000E+000
 224.50  0.0000E+000
 225.00  0.0000E+000
 225.50  0.0000E+000
 226.00  0.0000E+000
 226.50  0.0000E+000
 227.00  0.0000E+000
 227.50  0.0000E+000
 228.00  0.0000E+000
 228.50  0.0000E+000
 229.00  0.0000E+000
 229.50  0.0000E+000
 230.00  0.0000E+000
 230.50  0.0000E+000
 231.00  0.0000E+000
 231.50  0.0000E+000
 232.00  0.0000E+000
 232.50  0.0000E+000
 233.00  0.0000E+000
 233.50  0.0000E+000
 234.00  0.0000E+000
 234.50  0.0000E+000
 235.00  0.0000E+000
 235.50  0.0000E+000
 236.00  0.0000E+000
 236.50  0.0000E+000
 237.00  0.0000E+000
 237.50  0.0000E+000
 238.00  0.0000E+000
 238.50  0.0000E+000
 239.00  0.0000E+000
 239.50  0.0000E+000
 240.00  0.0000E+000
 240.50  0.0000E+000
 241.00  0.0000E+000
 241.50  0.0000E+000
 242.00  0.0000E+000
 242.50  0.0000E+000
 243.00  0.0000E+000
 243.50  0.0000E+000
 244.00  0.0000E+000
 244.50  0.0000E+000
 245.00  0.0000E+000
 245.50  0.0000E+000
 246.00  0.0000E+000
 246.50  0.0000E+000
 247.00  0.0000E+000
 247.50  0.0000E+000
 248.00  0.0000E+000
 248.50  0.0000E+000
 249.00  0.0000E+000
 249.50  0.0000E+000
 250.00  0.0000E+000
 250.50  0.0000E+000
 251.00  0.0000E+000
 251.50  0.0000E+000
 252.00  0.0000E+000
 252.50  0.0000E+000
 253.00  0.0000E+000
 253.50  0.0000E+000
 254.00  0.0000E+000
 254.50  0.0000E+000
 255.00  0.0000E+000
 255.50  0.0000E+000
 256.00  0.0000E+000
 256.50  0.0000E+000
 257.00  0.0000E+000
 257.50  0.0000E+000
 258.00  0.0000E+000
 258.50  0.0000E+000
 259.00  0.0000E+000
 259.50  0.0000E+000
 260.00  0.0000E+000
 260.50  0.0000E+000
 261.00  0.0000E+000
 261.50  0.0000E+000
 262.00  0.0000E+000
 262.50  0.0000E+000
 263.00  0.0000E+000
 263.50  0.0000E+000
 264.00  0.0000E+000
 264.50  0.0000E+000
 265.00  0.0000E+000
 265.50  0.0000E+000
 266.00  0.0000E+000
 266.50  0.0000E+000
 267.00  0.0000E+000
 267.50  0.0000E+000
 268.00  0.0000E+000
 268.50  0.0000E+000
 269.00  0.0000E+000
 269.50  0.0000E+000
 270.00  0.0000E+000
 270.50  0.0000E+000
 271.00  0.0000E+000
 271.50  0.0000E+000
 272.00  0.0000E+000
 272.50  0.0000E+000
 273.00  0.0000E+000
 273.50  0.0000E+000
 274.00  0.0000E+000
 274.50  0.0000E+000
 275.00  0.0000E+000
 275.50  0.0000E+000
 276.00  0.0000E+000
 276.50  0.0000E+000
 277.00  0.0000E+000
 277.50  0.0000E+000
 278.00  0.0000E+000
 278.50  0.0000E+000
 279.00  0.0000E+000
 279.50  0.0000E+000
 280.00  0.0000E+000
 280.50  0.0000E+000
 281.00  0.0000E+000
 281.50  0.0000E+000
 282.00  0.0000E+000
 282.50  0.0000E+000
 283.00  0.0000E+000
 283.50  0.0000E+000
 284.00  0.0000E+000
 284.50  0.0000E+000
 285.00  0.0000E+000
 285.50  0.0000E+000
 286.00  0.0000E+000
 286.50  0.0000E+000
 287.00  0.0000E+000
 287.50  0.0000E+000
 288.00  0.0000E+000
 288.50  0.0000E+000
 289.00  0.0000E+000
 289.50  0.0000E+000
 290.00  0.0000E+000
 290.50  0.0000E+000
 291.00  0.0000E+000
 291.50  0.0000E+000
 292.00  0.0000E+000
 292.50  0.0000E+000
 293.00  0.0000E+000
 293.50  0.0000E+000
 294.00  0.0000E+000
 294.50  0.0000E+000
 295.00  0.0000E+000
 295.50  0.0000E+000
 296.00  0.0000E+000
 296.50  0.0000E+000
 297.00  0.0000E+000
 297.50  0.0000E+000
 298.00  0.0000E+000
 298.50  0.0000E+000
 299.00  0.0000E+000
 299.50  0.0000E+000
 300.00  0.0000E+000
 300.50  0.0000E+000
 301.00  0.0000E+000
 301.50  0.0000E+000
 302.00  0.0000E+000
 302.50  0.0000E+000
 303.00  0.0000E+000
 303.50  0.0000E+000
 304.00  0.0000E+000
 304.50  0.0000E+000
 305.00  0.0000E+000
 305.50  0.0000E+000
 306.00  0.0000E+000
 306.50  0.0000E+000
 307.00  0.0000E+000
 307.50  0.0000E+000
 308.00  0.0000E+000
 308.50  0.0000E+000
 309.00  0.0000E+000
 309.50  0.0000E+000
 310.00  0.0000E+000
 310.50  0.0000E+000
 311.00  0.0000E+000
 311.50  0.0000E+000
 312.00  0.0000E+000
 312.50  0.0000E+000
 313.00  0.0000E+000
 313.50  0.0000E+000
 314.00  0.0000E+000
 314.50  0.0000E+000
 315.00  0.0000E+000
 315.50  0.0000E+000
 316.00  0.0000E+000
 316.50  0.0000E+000
 317.00  0.0000E+000
 317.50  0.0000E+000
 318.00  0.0000E+000
 318.50  0.0000E+000
 319.00  0.0000E+000
 319.50  0.0000E+000
 320.00  0.0000E+000
 320.50  0.0000E+000
 321.00  0.0000E+000
 321.50  0.0000E+000
 322.00  0.0000E+000
 322.50  0.0000E+000
 323.00  0.0000E+000
 323.50  0.0000E+000
 324.00  0.0000E+000
 324.50  0.0000E+000
 325.00  0.0000E+000
 325.50  0.0000E+000
 326.00  0.0000E+000
 326.50  0.0000E+000
 327.00  0.0000E+000
 327.50  0.0000E+000
 328.00  0.0000E+000
 328.50  0.0000E+000
 329.00  0.0000E+000
 329.50  0.0000E+000
 330.00  0.0000E+000
 330.50  0.0000E+000
 331.00  0.0000E+000
 331.50  0.0000E+000
 332.00  0.0000E+000
 332.50  0.0000E+000
 333.00  0.0000E+000
 333.50  0.0000E+000
 334.00  0.0000E+000
 334.50  0.0000E+000
 335.00  0.0000E+000
 335.50  0.0000E+000
 336.00  0.0000E+000
 336.50  0.0000E+000
 337.00  0.0000E+000
 337.50  0.0000E+000
 338.00  0.0000E+000
 338.50  0.0000E+000
 339.00  0.0000E+000
 339.50  0.0000E+000
 340.00  0.0000E+000
 340.50  0.0000E+000
 341.00  0.0000E+000
 341.50  0.0000E+000
 342.00  0.0000E+000
 342.50  0.0000E+000
 343.00  0.0000E+000
 343.50  0.0000E+000
 344.00  0.0000E+000
 344.50  0.0000E+000
 345.00  0.0000E+000
 345.50  0.0000E+000
 346.00  0.0000E+000
 346.50  0.0000E+000
 347.00  0.0000E+000
 347.50  0.0000E+000
 348.00  0.0000E+000
 348.50  0.0000E+000
 349.00  0.0000E+000
 349.50  0.0000E+000
 350.00  0.0000E+000
 350.50  0.0000E+000
 351.00  0.0000E+000
 351.50  0.0000E+000
 352.00  0.0000E+000
 352.50  0.0000E+000
 353.00  0.0000E+000
 353.50  0.0000E+000
 354.00  0.0000E+000
 354.50  0.0000E+000
 355.00  0.0000E+000
 355.50  0.0000E+000
 356.00  0.0000E+000
 356.50  0.0000E+000
 357.00  0.0000E+000
 357.50  0.0000E+000
 358.00  0.0000E+000
 358.50  0.0000E+000
 359.00  0.0000E+000
 359.50  5.7993E-009
 360.00  7.2826E-008
 360.50  1.1297E-007
 361.00  1.0729E-007
 361.50  1.0089E-007
 362.00  9.5996E-008
 362.50  1.0359E-007
 363.00  1.0143E-007
 363.50  8.7674E-008
 364.00  8.2680E-008
 364.50  6.4678E-008
 365.00  5.4265E-008
 365.50  6.2572E-008
 366.00  4.1209E-008
 366.50  3.5062E-008
 367.00  1.2569E-008
 367.50  0.0000E+000
 368.00  1.0916E-009
 368.50  8.2523E-010
 369.00  1.7283E-008
 369.50  2.8586E-008
 370.00  2.8994E-008
 370.50  3.0759E-008
 371.00  3.0664E-008
 371.50  2.8433E-008
 372.00  1.7626E-008
 372.50  4.3947E-009
 373.00  9.5068E-009
 373.50  4.2302E-008
 374.00  1.1286E-007
 374.50  1.3370E-007
 375.00  1.6228E-007
 375.50  1.5588E-007
 376.00  1.1536E-007
 376.50  8.6872E-008
 377.00  9.0910E-008
 377.50  1.0774E-007
 378.00  1.4842E-007
 378.50  1.9108E-007
 379.00  2.1818E-007
 379.50  2.5649E-007
 380.00  2.6322E-007
 380.50  2.5472E-007
 381.00  2.4352E-007
 381.50  2.0812E-007
 382.00  1.6846E-007
 382.50  1.2496E-007
 383.00  9.2069E-008
 383.50  7.8980E-008
 384.00  6.4203E-008
 384.50  4.8669E-008
 385.00  5.2770E-008
 385.50  5.0089E-008
 386.00  5.7362E-008
 386.50  6.6023E-008
 387.00  8.0932E-008
 387.50  9.0732E-008
 388.00  1.1667E-007
 388.50  1.4322E-007
 389.00  1.6851E-007
 389.50  1.7722E-007
 390.00  1.8058E-007
 390.50  1.7568E-007
 391.00  1.6362E-007
 391.50  1.4205E-007
 392.00  1.3352E-007
 392.50  1.2978E-007
 393.00  1.3824E-007
 393.50  1.2597E-007
 394.00  1.3089E-007
 394.50  1.3832E-007
 395.00  1.0160E-007
 395.50  9.5445E-008
 396.00  1.1286E-007
 396.50  1.0633E-007
 397.00  1.0681E-007
 397.50  7.3563E-008
 398.00  3.1580E-008
 398.50  2.9537E-009
 399.00  0.0000E+000
 399.50  0.0000E+000
 400.00  0.0000E+000
 400.50  0.0000E+000
 401.00  0.0000E+000
 401.50  0.0000E+000
 402.00  0.0000E+000
 402.50  0.0000E+000
 403.00  0.0000E+000
 403.50  1.5517E-008
 404.00  3.4934E-008
 404.50  3.7723E-008
 405.00  4.1899E-008
 405.50  4.5760E-008
 406.00  3.3943E-008
 406.50  3.3671E-008
 407.00  4.6282E-008
 407.50  5.6144E-008
 408.00  7.5891E-008
 408.50  1.0031E-007
 409.00  1.0417E-007
 409.50  1.2468E-007
 410.00  1.9234E-007
 410.50  2.2355E-007
 411.00  2.2145E-007
 411.50  2.0671E-007
 412.00  1.4168E-007
 412.50  9.0544E-008
 413.00  8.9066E-008
 413.50  5.9400E-008
 414.00  4.8472E-008
 414.50  2.1074E-008
 415.00  0.0000E+000
 415.50  0.0000E+000
 416.00  0.0000E+000
 416.50  0.0000E+000
 417.00  0.0000E+000
 417.50  0.0000E+000
 418.00  2.2224E-008
 418.50  7.2079E-008
 419.00  9.2033E-008
 419.50  9.1133E-008
 420.00  8.3580E-008
 420.50  7.2972E-008
 421.00  6.0409E-008
 421.50  7.4677E-008
 422.00  9.8227E-008
 422.50  1.3160E-007
 423.00  1.3776E-007
 423.50  1.5364E-007
 424.00  1.4757E-007
 424.50  1.4105E-007
 425.00  1.4192E-007
 425.50  1.3383E-007
 426.00  1.2486E-007
 426.50  1.4489E-007
 427.00  1.7152E-007
 427.50  2.0325E-007
 428.00  1.6551E-007
 428.50  1.5094E-007
 429.00  1.5173E-007
 429.50  1.5726E-007
 430.00  2.0049E-007
 430.50  2.3891E-007
 431.00  2.4394E-007
 431.50  1.8884E-007
 432.00  1.5354E-007
 432.50  1.1384E-007
 433.00  1.2238E-007
 433.50  1.4593E-007
 434.00  1.5531E-007
 434.50  1.8351E-007
 435.00  1.8955E-007
 435.50  1.7765E-007
 436.00  1.7280E-007
 436.50  1.6180E-007
 437.00  1.7650E-007
 437.50  1.9157E-007
 438.00  2.1423E-007
 438.50  2.4711E-007
 439.00  2.5847E-007
 439.50  2.7625E-007
 440.00  2.9526E-007
 440.50  2.6090E-007
 441.00  2.3534E-007
 441.50  2.3364E-007
 442.00  1.9993E-007
 442.50  1.5801E-007
 443.00  1.4602E-007
 443.50  1.3563E-007
 444.00  1.3062E-007
 444.50  1.4751E-007
 445.00  1.7117E-007
 445.50  1.7831E-007
 446.00  1.6261E-007
 446.50  1.3819E-007
 447.00  1.1584E-007
 447.50  1.0622E-007
 448.00  8.7714E-008
 448.50  6.5363E-008
 449.00  5.7745E-008
 449.50  5.9650E-008
 450.00  5.9238E-008
 450.50  1.0330E-007
 451.00  1.4991E-007
 451.50  2.0290E-007
 452.00  2.1882E-007
 452.50  2.1435E-007
 453.00  1.8652E-007
 453.50  1.3371E-007
 454.00  1.0836E-007
 454.50  9.6432E-008
 455.00  8.5651E-008
 455.50  1.0459E-007
 456.00  1.1435E-007
 456.50  1.0244E-007
 457.00  1.0166E-007
 457.50  9.6888E-008
 458.00  7.5693E-008
 458.50  6.9037E-008
 459.00  6.4261E-008
 459.50  7.8090E-008
 460.00  8.3120E-008
 460.50  8.6885E-008
 461.00  7.1564E-008
 461.50  5.6345E-008
 462.00  3.2328E-008
 462.50  8.4709E-009
 463.00  1.1115E-009
 463.50  1.2135E-010
 464.00  0.0000E+000
 464.50  0.0000E+000
 465.00  0.0000E+000
 465.50  0.0000E+000
 466.00  0.0000E+000
 466.50  0.0000E+000
 467.00  0.0000E+000
 467.50  0.0000E+000
 468.00  0.0000E+000
 468.50  0.0000E+000
 469.00  0.0000E+000
 469.50  0.0000E+000
 470.00  8.3851E-010
 470.50  1.2027E-008
 471.00  2.8660E-008
 471.50  2.3339E-008
 472.00  2.3994E-008
 472.50  3.5041E-008
 473.00  2.6427E-008
 473.50  2.6274E-008
 474.00  6.0518E-008
 474.50  9.4676E-008
 475.00  9.9854E-008
 475.50  1.1096E-007
 476.00  1.1732E-007
 476.50  1.0076E-007
 477.00  7.5408E-008
 477.50  6.4632E-008
 478.00  6.3191E-008
 478.50  7.8018E-008
 479.00  5.3258E-008
 479.50  5.3484E-008
 480.00  6.7928E-008
 480.50  8.9370E-008
 481.00  1.1126E-007
 481.50  1.5331E-007
 482.00  1.7478E-007
 482.50  1.5776E-007
 483.00  1.3981E-007
 483.50  1.1457E-007
 484.00  1.0398E-007
 484.50  9.1696E-008
 485.00  9.3726E-008
 485.50  1.1081E-007
 486.00  1.3952E-007
 486.50  1.6695E-007
 487.00  1.9639E-007
 487.50  2.0714E-007
 488.00  2.0330E-007
 488.50  1.7340E-007
 489.00  1.3405E-007
 489.50  8.8712E-008
 490.00  5.2545E-008
 490.50  2.5268E-008
 491.00  2.1137E-008
 491.50  1.2692E-008
 492.00  7.2296E-009
 492.50  1.2377E-008
 493.00  1.6155E-008
 493.50  3.3168E-008
 494.00  7.5707E-008
 494.50  1.1569E-007
 495.00  1.3133E-007
 495.50  1.4836E-007
 496.00  1.5779E-007
 496.50  1.6166E-007
 497.00  1.6994E-007
 497.50  1.7650E-007
 498.00  1.8902E-007
 498.50  1.7767E-007
 499.00  1.7686E-007
 499.50  1.7983E-007
 500.00  1.8244E-007
 500.50  1.7834E-007
 501.00  1.7996E-007
 501.50  2.0373E-007
 502.00  2.3094E-007
 502.50  2.3249E-007
 503.00  2.4787E-007
 503.50  2.7557E-007
 504.00  2.6501E-007
 504.50  2.6183E-007
 505.00  2.6246E-007
 505.50  2.2585E-007
 506.00  1.7789E-007
 506.50  1.4912E-007
 507.00  1.3502E-007
 507.50  1.3940E-007
 508.00  1.5256E-007
 508.50  1.6411E-007
 509.00  1.7052E-007
 509.50  1.8738E-007
 510.00  1.9581E-007
 510.50  1.7847E-007
 511.00  1.6174E-007
 511.50  1.5433E-007
 512.00  1.3895E-007
 512.50  1.3510E-007
 513.00  1.3018E-007
 513.50  1.1925E-007
 514.00  1.1074E-007
 514.50  1.0766E-007
 515.00  1.1939E-007
 515.50  1.3430E-007
 516.00  1.4773E-007
 516.50  1.6851E-007
 517.00  1.9234E-007
 517.50  2.1126E-007
 518.00  2.2176E-007
 518.50  2.3259E-007
 519.00  2.1968E-007
 519.50  1.9366E-007
 520.00  1.8379E-007
 520.50  1.5685E-007
 521.00  1.3358E-007
 521.50  1.3585E-007
 522.00  1.4398E-007
 522.50  1.6258E-007
 523.00  1.8231E-007
 523.50  1.9352E-007
 524.00  1.9039E-007
 524.50  1.7643E-007
 525.00  1.9805E-007
 525.50  2.0386E-007
 526.00  1.9887E-007
 526.50  2.0246E-007
 527.00  2.0886E-007
 527.50  1.9631E-007
 528.00  1.9333E-007
 528.50  2.0373E-007
 529.00  2.0172E-007
 529.50  1.7268E-007
 530.00  1.5340E-007
 530.50  1.2370E-007
 531.00  9.3752E-008
 531.50  9.4498E-008
 532.00  1.0081E-007
 532.50  9.3442E-008
 533.00  9.0425E-008
 533.50  8.4622E-008
 534.00  8.2870E-008
 534.50  8.9847E-008
 535.00  1.2068E-007
 535.50  1.5571E-007
 536.00  1.9090E-007
 536.50  2.1709E-007
 537.00  2.7032E-007
 537.50  3.2018E-007
 538.00  3.5966E-007
 538.50  3.7681E-007
 539.00  3.8594E-007
 539.50  3.8704E-007
 540.00  3.3817E-007
 540.50  3.3077E-007
 541.00  3.4738E-007
 541.50  3.4977E-007
 542.00  3.3068E-007
 542.50  3.4943E-007
 543.00  3.0979E-007
 543.50  2.6496E-007
 544.00  2.4008E-007
 544.50  1.9584E-007
 545.00  1.5562E-007
 545.50  1.3135E-007
 546.00  1.0255E-007
 546.50  9.7892E-008
 547.00  1.2134E-007
 547.50  1.5226E-007
 548.00  1.6569E-007
 548.50  1.6506E-007
 549.00  1.4786E-007
 549.50  1.1840E-007
 550.00  1.2273E-007
 550.50  1.8029E-007
 551.00  1.8643E-007
 551.50  1.4788E-007
 552.00  1.6916E-007
 552.50  1.7426E-007
 553.00  1.4451E-007
 553.50  1.6991E-007
 554.00  1.8711E-007
 554.50  1.5515E-007
 555.00  1.2528E-007
 555.50  1.5773E-007
 556.00  2.4421E-007
 556.50  3.2518E-007
 557.00  3.7496E-007
 557.50  4.2134E-007
 558.00  4.0016E-007
 558.50  3.9607E-007
 559.00  3.9099E-007
 559.50  3.6875E-007
 560.00  3.5284E-007
 560.50  3.2938E-007
 561.00  3.0660E-007
 561.50  3.2953E-007
 562.00  3.9396E-007
 562.50  4.2809E-007
 563.00  4.7994E-007
 563.50  5.2023E-007
 564.00  5.3008E-007
 564.50  4.9889E-007
 565.00  4.7550E-007
 565.50  4.2375E-007
 566.00  3.3980E-007
 566.50  2.4550E-007
 567.00  1.9655E-007
 567.50  1.8269E-007
 568.00  2.1183E-007
 568.50  2.7093E-007
 569.00  3.2998E-007
 569.50  4.2398E-007
 570.00  4.6500E-007
 570.50  5.0654E-007
 571.00  6.0627E-007
 571.50  6.9679E-007
 572.00  7.4247E-007
 572.50  8.1070E-007
 573.00  8.4757E-007
 573.50  8.3005E-007
 574.00  8.4245E-007
 574.50  8.4652E-007
 575.00  8.2156E-007
 575.50  8.0018E-007
 576.00  7.7155E-007
 576.50  7.3662E-007
 577.00  7.2010E-007
 577.50  7.2333E-007
 578.00  7.0520E-007
 578.50  6.6922E-007
 579.00  6.4223E-007
 579.50  5.9791E-007
 580.00  5.5332E-007
 580.50  5.6868E-007
 581.00  6.0647E-007
 581.50  6.2254E-007
 582.00  6.4422E-007
 582.50  6.4639E-007
 583.00  6.2385E-007
 583.50  6.0645E-007
 584.00  5.6924E-007
 584.50  5.0431E-007
 585.00  4.5882E-007
 585.50  4.8429E-007
 586.00  4.8405E-007
 586.50  5.7580E-007
 587.00  6.4682E-007
 587.50  7.0284E-007
 588.00  6.6050E-007
 588.50  6.0260E-007
 589.00  5.7502E-007
 589.50  5.7333E-007
 590.00  5.8471E-007
 590.50  6.1576E-007
 591.00  6.6964E-007
 591.50  7.1492E-007
 592.00  7.5453E-007
 592.50  8.8604E-007
 593.00  8.9700E-007
 593.50  9.4302E-007
 594.00  9.4758E-007
 594.50  9.3248E-007
 595.00  9.2993E-007
 595.50  9.8678E-007
 596.00  1.0218E-006
 596.50  1.0559E-006
 597.00  1.0929E-006
 597.50  1.1445E-006
 598.00  1.1694E-006
 598.50  1.1325E-006
 599.00  1.0535E-006
 599.50  8.6526E-007
 600.00  6.4442E-007
 600.50  4.9724E-007
 601.00  4.3088E-007
 601.50  3.8141E-007
 602.00  4.4987E-007
 602.50  5.7552E-007
 603.00  6.5040E-007
 603.50  7.3706E-007
 604.00  8.2442E-007
 604.50  8.3042E-007
 605.00  8.2530E-007
 605.50  8.2633E-007
 606.00  8.3940E-007
 606.50  8.6978E-007
 607.00  9.1678E-007
 607.50  8.9670E-007
 608.00  8.9961E-007
 608.50  9.6206E-007
 609.00  1.0429E-006
 609.50  1.1311E-006
 610.00  1.2684E-006
 610.50  1.3807E-006
 611.00  1.4213E-006
 611.50  1.4170E-006
 612.00  1.3905E-006
 612.50  1.2666E-006
 613.00  1.1839E-006
 613.50  1.1494E-006
 614.00  1.1134E-006
 614.50  1.0951E-006
 615.00  1.1632E-006
 615.50  1.2334E-006
 616.00  1.2508E-006
 616.50  1.2981E-006
 617.00  1.3084E-006
 617.50  1.1829E-006
 618.00  1.0025E-006
 618.50  8.8741E-007
 619.00  8.2026E-007
 619.50  7.8319E-007
 620.00  7.7806E-007
 620.50  7.6539E-007
 621.00  7.6166E-007
 621.50  7.9678E-007
 622.00  8.2867E-007
 622.50  8.9812E-007
 623.00  9.9055E-007
 623.50  1.1452E-006
 624.00  1.2839E-006
 624.50  1.3789E-006
 625.00  1.4351E-006
 625.50  1.4184E-006
 626.00  1.3263E-006
 626.50  1.2500E-006
 627.00  1.2380E-006
 627.50  1.2429E-006
 628.00  1.2659E-006
 628.50  1.3642E-006
 629.00  1.4608E-006
 629.50  1.6104E-006
 630.00  1.7607E-006
 630.50  1.8568E-006
 631.00  1.8560E-006
 631.50  1.8536E-006
 632.00  1.8171E-006
 632.50  1.8140E-006
 633.00  1.8357E-006
 633.50  1.8464E-006
 634.00  1.8196E-006
 634.50  1.7552E-006
 635.00  1.7386E-006
 635.50  1.7431E-006
 636.00  1.8467E-006
 636.50  1.9722E-006
 637.00  2.1303E-006
 637.50  2.1633E-006
 638.00  2.2299E-006
 638.50  2.2758E-006
 639.00  2.3141E-006
 639.50  2.3109E-006
 640.00  2.2912E-006
 640.50  2.2543E-006
 641.00  2.1890E-006
 641.50  2.1795E-006
 642.00  2.2363E-006
 642.50  2.3194E-006
 643.00  2.3777E-006
 643.50  2.4519E-006
 644.00  2.5091E-006
 644.50  2.6281E-006
 645.00  2.7625E-006
 645.50  2.8737E-006
 646.00  2.9416E-006
 646.50  2.9696E-006
 647.00  2.9468E-006
 647.50  2.9104E-006
 648.00  2.9299E-006
 648.50  2.9276E-006
 649.00  2.9172E-006
 649.50  2.9099E-006
 650.00  2.9298E-006
 650.50  2.9458E-006
 651.00  2.9610E-006
 651.50  2.9975E-006
 652.00  3.0534E-006
 652.50  3.1290E-006
 653.00  3.2658E-006
 653.50  3.4413E-006
 654.00  3.5850E-006
 654.50  3.6921E-006
 655.00  3.7677E-006
 655.50  3.8524E-006
 656.00  4.0909E-006
 656.50  4.3511E-006
 657.00  4.5090E-006
 657.50  4.5764E-006
 658.00  4.5254E-006
 658.50  4.3386E-006
 659.00  4.2408E-006
 659.50  4.2415E-006
 660.00  4.2260E-006
 660.50  4.3397E-006
 661.00  4.6240E-006
 661.50  4.7986E-006
 662.00  4.9596E-006
 662.50  5.1839E-006
 663.00  5.4006E-006
 663.50  5.4345E-006
 664.00  5.6762E-006
 664.50  5.8605E-006
 665.00  5.9564E-006
 665.50  5.9733E-006
 666.00  6.0283E-006
 666.50  6.0638E-006
 667.00  6.2314E-006
 667.50  6.4772E-006
 668.00  6.7331E-006
 668.50  7.0282E-006
 669.00  7.2826E-006
 669.50  7.5424E-006
 670.00  7.7098E-006
 670.50  7.8375E-006
 671.00  7.9416E-006
 671.50  8.0810E-006
 672.00  8.1457E-006
 672.50  8.2463E-006
 673.00  8.3923E-006
 673.50  8.5971E-006
 674.00  8.8473E-006
 674.50  9.2541E-006
 675.00  9.7080E-006
 675.50  1.0215E-005
 676.00  1.0821E-005
 676.50  1.1364E-005
 677.00  1.1802E-005
 677.50  1.2239E-005
 678.00  1.2612E-005
 678.50  1.2894E-005
 679.00  1.3241E-005
 679.50  1.3715E-005
 680.00  1.4306E-005
 680.50  1.4964E-005
 681.00  1.5713E-005
 681.50  1.6391E-005
 682.00  1.6960E-005
 682.50  1.7470E-005
 683.00  1.7950E-005
 683.50  1.8456E-005
 684.00  1.9049E-005
 684.50  1.9776E-005
 685.00  2.0618E-005
 685.50  2.1536E-005
 686.00  2.2504E-005
 686.50  2.3431E-005
 687.00  2.4313E-005
 687.50  2.5180E-005
 688.00  2.6114E-005
 688.50  2.7071E-005
 689.00  2.8077E-005
 689.50  2.9127E-005
 690.00  3.0165E-005
 690.50  3.1223E-005
 691.00  3.2394E-005
 691.50  3.3695E-005
 692.00  3.5080E-005
 692.50  3.6490E-005
 693.00  3.7758E-005
 693.50  3.9121E-005
 694.00  4.0690E-005
 694.50  4.2307E-005
 695.00  4.3995E-005
 695.50  4.5871E-005
 696.00  4.7688E-005
 696.50  4.9476E-005
 697.00  5.1404E-005
 697.50  5.3423E-005
 698.00  5.5512E-005
 698.50  5.7584E-005
 699.00  5.9624E-005
 699.50  6.1618E-005
 700.00  6.3708E-005
 700.50  6.5888E-005
 701.00  6.8183E-005
 701.50  7.0681E-005
 702.00  7.3385E-005
 702.50  7.6007E-005
 703.00  7.8602E-005
 703.50  8.1108E-005
 704.00  8.3682E-005
 704.50  8.6473E-005
 705.00  8.9547E-005
 705.50  9.3075E-005
 706.00  9.6863E-005
 706.50  1.0059E-004
 707.00  1.0441E-004
 707.50  1.0820E-004
 708.00  1.1201E-004
 708.50  1.1604E-004
 709.00  1.2030E-004
 709.50  1.2466E-004
 710.00  1.2937E-004
 710.50  1.3437E-004
 711.00  1.3966E-004
 711.50  1.4536E-004
 712.00  1.5141E-004
 712.50  1.5766E-004
 713.00  1.6399E-004
 713.50  1.7038E-004
 714.00  1.7697E-004
 714.50  1.8368E-004
 715.00  1.9070E-004
 715.50  1.9780E-004
 716.00  2.0538E-004
 716.50  2.1322E-004
 717.00  2.2166E-004
 717.50  2.3039E-004
 718.00  2.3938E-004
 718.50  2.4838E-004
 719.00  2.5743E-004
 719.50  2.6652E-004
 720.00  2.7613E-004
 720.50  2.8637E-004
 721.00  2.9725E-004
 721.50  3.0875E-004
 722.00  3.2079E-004
 722.50  3.3314E-004
 723.00  3.4575E-004
 723.50  3.5852E-004
 724.00  3.7148E-004
 724.50  3.8481E-004
 725.00  3.9872E-004
 725.50  4.1317E-004
 726.00  4.2855E-004
 726.50  4.4503E-004
 727.00  4.6247E-004
 727.50  4.8100E-004
 728.00  5.0053E-004
 728.50  5.2072E-004
 729.00  5.4161E-004
 729.50  5.6324E-004
 730.00  5.8567E-004
 730.50  6.0938E-004
 731.00  6.3418E-004
 731.50  6.5999E-004
 732.00  6.8628E-004
 732.50  7.1320E-004
 733.00  7.4084E-004
 733.50  7.6960E-004
 734.00  8.0000E-004
 734.50  8.3223E-004
 735.00  8.6624E-004
 735.50  9.0173E-004
 736.00  9.3853E-004
 736.50  9.7679E-004
 737.00  1.0166E-003
 737.50  1.0580E-003
 738.00  1.1013E-003
 738.50  1.1469E-003
 739.00  1.1949E-003
 739.50  1.2450E-003
 740.00  1.2969E-003
 740.50  1.3500E-003
 741.00  1.4033E-003
 741.50  1.4577E-003
 742.00  1.5136E-003
 742.50  1.5714E-003
 743.00  1.6315E-003
 743.50  1.6942E-003
 744.00  1.7588E-003
 744.50  1.8250E-003
 745.00  1.8931E-003
 745.50  1.9626E-003
 746.00  2.0339E-003
 746.50  2.1070E-003
 747.00  2.1814E-003
 747.50  2.2567E-003
 748.00  2.3323E-003
 748.50  2.4079E-003
 749.00  2.4838E-003
 749.50  2.5594E-003
 750.00  2.6341E-003
 750.50  2.7074E-003
 751.00  2.7782E-003
 751.50  2.8461E-003
 752.00  2.9112E-003
 752.50  2.9737E-003
 753.00  3.0336E-003
 753.50  3.0908E-003
 754.00  3.1447E-003
 754.50  3.1940E-003
 755.00  3.2367E-003
 755.50  3.2721E-003
 756.00  3.2998E-003
 756.50  3.3200E-003
 757.00  3.3350E-003
 757.50  3.3451E-003
 758.00  3.3499E-003
 758.50  3.3492E-003
 759.00  3.3433E-003
 759.50  3.3326E-003
 760.00  3.3160E-003
 760.50  3.2928E-003
 761.00  3.2631E-003
 761.50  3.2262E-003
 762.00  3.1824E-003
 762.50  3.1327E-003
 763.00  3.0772E-003
 763.50  3.0162E-003
 764.00  2.9493E-003
 764.50  2.8760E-003
 765.00  2.7976E-003
 765.50  2.7152E-003
 766.00  2.6299E-003
 766.50  2.5422E-003
 767.00  2.4518E-003
 767.50  2.3589E-003
 768.00  2.2636E-003
 768.50  2.1667E-003
 769.00  2.0703E-003
 769.50  1.9760E-003
 770.00  1.8837E-003
 770.50  1.7939E-003
 771.00  1.7073E-003
 771.50  1.6233E-003
 772.00  1.5416E-003
 772.50  1.4633E-003
 773.00  1.3875E-003
 773.50  1.3150E-003
 774.00  1.2460E-003
 774.50  1.1807E-003
 775.00  1.1188E-003
 775.50  1.0605E-003
 776.00  1.0056E-003
 776.50  9.5432E-004
 777.00  9.0654E-004
 777.50  8.6167E-004
 778.00  8.1950E-004
 778.50  7.7943E-004
 779.00  7.4088E-004
 779.50  7.0402E-004
 780.00  6.6868E-004
 780.50  6.3500E-004
 781.00  6.0330E-004
 781.50  5.7383E-004
 782.00  5.4623E-004
 782.50  5.2075E-004
 783.00  4.9684E-004
 783.50  4.7353E-004
 784.00  4.5094E-004
 784.50  4.2948E-004
 785.00  4.0890E-004
 785.50  3.8923E-004
 786.00  3.7117E-004
 786.50  3.5423E-004
 787.00  3.3808E-004
 787.50  3.2271E-004
 788.00  3.0800E-004
 788.50  2.9394E-004
 789.00  2.8075E-004
 789.50  2.6818E-004
 790.00  2.5646E-004
 790.50  2.4588E-004
 791.00  2.3578E-004
 791.50  2.2595E-004
 792.00  2.1685E-004
 792.50  2.0828E-004
 793.00  1.9983E-004
 793.50  1.9193E-004
 794.00  1.8435E-004
 794.50  1.7707E-004
 795.00  1.6987E-004
 795.50  1.6303E-004
 796.00  1.5658E-004
 796.50  1.5058E-004
 797.00  1.4498E-004
 797.50  1.3971E-004
 798.00  1.3483E-004
 798.50  1.3028E-004
 799.00  1.2590E-004
 799.50  1.2155E-004
 800.00  1.1729E-004
 800.50  1.1305E-004
 801.00  1.0903E-004
 801.50  1.0526E-004
 802.00  1.0205E-004
 802.50  9.9154E-005
 803.00  9.6633E-005
 803.50  9.4140E-005
 804.00  9.1808E-005
 804.50  8.9546E-005
 805.00  8.7371E-005
 805.50  8.5177E-005
 806.00  8.3040E-005
 806.50  8.0880E-005
 807.00  7.8648E-005
 807.50  7.6269E-005
 808.00  7.3909E-005
 808.50  7.1618E-005
 809.00  6.9554E-005
 809.50  6.7774E-005
 810.00  6.6358E-005
 810.50  6.5166E-005
 811.00  6.3742E-005
 811.50  6.2170E-005
 812.00  6.0409E-005
 812.50  5.8740E-005
 813.00  5.7018E-005
 813.50  5.5429E-005
 814.00  5.3749E-005
 814.50  5.2245E-005
 815.00  5.0555E-005
 815.50  4.8600E-005
 816.00  4.7014E-005
 816.50  4.5736E-005
 817.00  4.4388E-005
 817.50  4.3330E-005
 818.00  4.2619E-005
 818.50  4.1923E-005
 819.00  4.1165E-005
 819.50  4.0456E-005
 820.00  3.9771E-005
 820.50  3.8740E-005
 821.00  3.7607E-005
 821.50  3.6521E-005
 822.00  3.5274E-005
 822.50  3.3995E-005
 823.00  3.2993E-005
 823.50  3.1941E-005
 824.00  3.1075E-005
 824.50  3.0381E-005
 825.00  2.9870E-005
 825.50  2.9364E-005
 826.00  2.8918E-005
 826.50  2.8603E-005
 827.00  2.8249E-005
 827.50  2.7680E-005
 828.00  2.7101E-005
 828.50  2.6572E-005
 829.00  2.6114E-005
 829.50  2.5814E-005
 830.00  2.5519E-005
 830.50  2.5059E-005
 831.00  2.4272E-005
 831.50  2.3370E-005
 832.00  2.2472E-005
 832.50  2.1901E-005
 833.00  2.1649E-005
 833.50  2.1557E-005
 834.00  2.1455E-005
 834.50  2.1406E-005
 835.00  2.1679E-005
 835.50  2.1958E-005
 836.00  2.1732E-005
 836.50  2.1259E-005
 837.00  2.0796E-005
 837.50  1.9975E-005
 838.00  1.9238E-005
 838.50  1.8939E-005
 839.00  1.8838E-005
 839.50  1.8667E-005
 840.00  1.8553E-005
 840.50  1.8425E-005
 841.00  1.8441E-005
 841.50  1.8274E-005
 842.00  1.8348E-005
 842.50  1.8417E-005
 843.00  1.8403E-005
 843.50  1.8294E-005
 844.00  1.8412E-005
 844.50  1.8299E-005
 845.00  1.8129E-005
 845.50  1.8035E-005
 846.00  1.7802E-005
 846.50  1.7455E-005
 847.00  1.7170E-005
 847.50  1.6673E-005
 848.00  1.5975E-005
 848.50  1.5608E-005
 849.00  1.5371E-005
 849.50  1.5222E-005
 850.00  1.5475E-005
 850.50  1.5698E-005
 851.00  1.5500E-005
 851.50  1.4861E-005
 852.00  1.4109E-005
 852.50  1.3243E-005
 853.00  1.2406E-005
 853.50  1.2128E-005
 854.00  1.2214E-005
 854.50  1.2406E-005
 855.00  1.2734E-005
 855.50  1.2953E-005
 856.00  1.3107E-005
 856.50  1.3191E-005
 857.00  1.2976E-005
 857.50  1.2909E-005
 858.00  1.3217E-005
 858.50  1.3457E-005
 859.00  1.3825E-005
 859.50  1.4578E-005
 860.00  1.5178E-005
 860.50  1.5635E-005
 861.00  1.6097E-005
 861.50  1.6294E-005
 862.00  1.6641E-005
 862.50  1.7001E-005
 863.00  1.7268E-005
 863.50  1.7291E-005
 864.00  1.7688E-005
 864.50  1.8249E-005
 865.00  1.8746E-005
 865.50  1.8507E-005
 866.00  1.9068E-005
 866.50  1.9535E-005
 867.00  1.9301E-005
 867.50  1.9049E-005
 868.00  1.9168E-005
 868.50  1.8905E-005
 869.00  1.8501E-005
 869.50  1.8457E-005
 870.00  1.8596E-005
 870.50  1.8578E-005
 871.00  1.8215E-005
 871.50  1.7739E-005
 872.00  1.7263E-005
 872.50  1.7172E-005
 873.00  1.7608E-005
 873.50  1.8954E-005
 874.00  2.0458E-005
 874.50  2.1632E-005
 875.00  2.2801E-005
 875.50  2.3633E-005
 876.00  2.3367E-005
 876.50  2.2926E-005
 877.00  2.2315E-005
 877.50  2.0575E-005
 878.00  1.9102E-005
 878.50  1.7509E-005
 879.00  1.6328E-005
 879.50  1.5690E-005
 880.00  1.5179E-005
 880.50  1.4519E-005
 881.00  1.3822E-005
 881.50  1.2805E-005
 882.00  1.1968E-005
 882.50  1.1631E-005
 883.00  1.1147E-005
 883.50  1.0124E-005
 884.00  9.5483E-006
 884.50  9.6032E-006
 885.00  1.0207E-005
 885.50  1.1521E-005
 886.00  1.3191E-005
 886.50  1.4430E-005
 887.00  1.4912E-005
 887.50  1.4505E-005
 888.00  1.4005E-005
 888.50  1.2820E-005
 889.00  1.2129E-005
 889.50  1.1418E-005
 890.00  1.0868E-005
 890.50  1.0387E-005
 891.00  1.1098E-005
 891.50  1.0922E-005
 892.00  1.0595E-005
 892.50  1.0641E-005
 893.00  1.1056E-005
 893.50  1.1118E-005
 894.00  1.1537E-005
 894.50  1.1952E-005
 895.00  1.2225E-005
 895.50  1.2499E-005
 896.00  1.2808E-005
 896.50  1.2933E-005
 897.00  1.2845E-005
 897.50  1.2601E-005
 898.00  1.2335E-005
 898.50  1.2251E-005
 899.00  1.1937E-005
 899.50  1.1369E-005
 900.00  1.1943E-005
 900.50  1.2430E-005
 901.00  1.2425E-005
 901.50  1.3101E-005
 902.00  1.3902E-005
 902.50  1.3437E-005
 903.00  1.2514E-005
 903.50  1.1852E-005
 904.00  1.1506E-005
 904.50  1.1106E-005
 905.00  1.0791E-005
 905.50  1.1329E-005
 906.00  1.1691E-005
 906.50  1.1744E-005
 907.00  1.1863E-005
 907.50  1.1763E-005
 908.00  1.1571E-005
 908.50  1.1555E-005
 909.00  1.1797E-005
 909.50  1.1985E-005
 910.00  1.2120E-005
 910.50  1.2362E-005
 911.00  1.2457E-005
 911.50  1.2338E-005
 912.00  1.2256E-005
 912.50  1.2043E-005
 913.00  1.1880E-005
 913.50  1.1895E-005
 914.00  1.2345E-005
 914.50  1.3022E-005
 915.00  1.4016E-005
 915.50  1.4633E-005
 916.00  1.4576E-005
 916.50  1.3931E-005
 917.00  1.3317E-005
 917.50  1.1679E-005
 918.00  1.0116E-005
 918.50  9.5658E-006
 919.00  9.5646E-006
 919.50  9.9342E-006
 920.00  1.0937E-005
 920.50  1.2025E-005
 921.00  1.2657E-005
 921.50  1.2726E-005
 922.00  1.2209E-005
 922.50  1.1555E-005
 923.00  1.0601E-005
 923.50  9.5445E-006
 924.00  8.3775E-006
 924.50  7.5141E-006
 925.00  7.2706E-006
 925.50  7.2273E-006
 926.00  7.4811E-006
 926.50  8.2406E-006
 927.00  8.7586E-006
 927.50  8.9439E-006
 928.00  9.3809E-006
 928.50  9.9663E-006
 929.00  1.1067E-005
 929.50  1.1628E-005
 930.00  1.2433E-005
 930.50  1.2963E-005
 931.00  1.3667E-005
 931.50  1.4390E-005
 932.00  1.6034E-005
 932.50  1.7258E-005
 933.00  1.7282E-005
 933.50  1.6703E-005
 934.00  1.5775E-005
 934.50  1.5059E-005
 935.00  1.3981E-005
 935.50  1.4136E-005
 936.00  1.4313E-005
 936.50  1.4116E-005
 937.00  1.3886E-005
 937.50  1.4289E-005
 938.00  1.4959E-005
 938.50  1.5947E-005
 939.00  1.7087E-005
 939.50  1.8220E-005
 940.00  1.9154E-005
 940.50  1.9461E-005
 941.00  1.9404E-005
 941.50  1.9393E-005
 942.00  1.8943E-005
 942.50  1.7601E-005
 943.00  1.5924E-005
 943.50  1.3891E-005
 944.00  1.1944E-005
 944.50  1.1791E-005
 945.00  1.2400E-005
 945.50  1.3464E-005
 946.00  1.5744E-005
 946.50  1.7423E-005
 947.00  1.7781E-005
 947.50  1.7658E-005
 948.00  1.7094E-005
 948.50  1.5570E-005
 949.00  1.4317E-005
 949.50  1.2612E-005
 950.00  1.2455E-005
 950.50  1.3266E-005
 951.00  1.3910E-005
 951.50  1.4538E-005
 952.00  1.4913E-005
 952.50  1.4238E-005
 953.00  1.3015E-005
 953.50  1.1483E-005
 954.00  9.8326E-006
 954.50  8.7988E-006
 955.00  8.0545E-006
 955.50  7.7326E-006
 956.00  7.8940E-006
 956.50  8.1283E-006
 957.00  8.4476E-006
 957.50  9.1796E-006
 958.00  1.0076E-005
 958.50  1.1852E-005
 959.00  1.3536E-005
 959.50  1.5355E-005
 960.00  1.6608E-005
 960.50  1.7380E-005
 961.00  1.5785E-005
 961.50  1.4058E-005
 962.00  1.1949E-005
 962.50  1.0435E-005
 963.00  9.0603E-006
 963.50  1.0666E-005
 964.00  1.0013E-005
 964.50  8.7905E-006
 965.00  7.9294E-006
 965.50  9.4666E-006
 966.00  1.1583E-005
 966.50  1.4373E-005
 967.00  1.8979E-005
 967.50  2.3772E-005
 968.00  2.5379E-005
 968.50  2.5355E-005
 969.00  2.6839E-005
 969.50  2.5559E-005
 970.00  2.2127E-005
 970.50  1.9797E-005
 971.00  1.8898E-005
 971.50  1.9106E-005
 972.00  1.9840E-005
 972.50  2.0927E-005
 973.00  2.2655E-005
 973.50  2.5036E-005
 974.00  2.7777E-005
 974.50  2.9929E-005
 975.00  3.1262E-005
 975.50  3.2440E-005
 976.00  3.2002E-005
 976.50  3.0265E-005
 977.00  3.0271E-005
 977.50  3.1289E-005
 978.00  3.0364E-005
 978.50  2.8680E-005
 979.00  2.8173E-005
 979.50  2.7109E-005
 980.00  2.5539E-005
 980.50  2.4421E-005
 981.00  2.5380E-005
 981.50  2.4509E-005
 982.00  2.4934E-005
 982.50  2.7075E-005
 983.00  3.0181E-005
 983.50  3.1763E-005
 984.00  3.3821E-005
 984.50  3.2780E-005
 985.00  2.9936E-005
 985.50  2.4736E-005
 986.00  2.0320E-005
 986.50  1.6199E-005
 987.00  1.5179E-005
 987.50  1.4643E-005
 988.00  1.6155E-005
 988.50  1.9190E-005
 989.00  2.3228E-005
 989.50  2.6764E-005
 990.00  2.7258E-005
 990.50  2.6077E-005
 991.00  2.3152E-005
 991.50  1.8442E-005
 992.00  1.5622E-005
 992.50  1.6283E-005
 993.00  1.6457E-005
 993.50  1.7427E-005
 994.00  1.9893E-005
 994.50  2.4950E-005
 995.00  2.7292E-005
 995.50  2.7406E-005
 996.00  3.1281E-005
 996.50  3.6198E-005
 997.00  3.4588E-005
 997.50  3.7425E-005
 998.00  4.3939E-005
 998.50  4.8016E-005
 999.00  4.7647E-005
 999.50  4.9117E-005
1000.00  3.0561E-005
1000.50  1.5056E-006
1001.00  0.0000E+000
1001.50  0.0000E+000
1002.00  0.0000E+000
1002.50  0.0000E+000
1003.00  0.0000E+000
1003.50  0.0000E+000
1004.00  0.0000E+000
1004.50  0.0000E+000
1005.00  0.0000E+000
1005.50  0.0000E+000
1006.00  0.0000E+000
1006.50  0.0000E+000
1007.00  0.0000E+000
1007.50  0.0000E+000
1008.00  0.0000E+000
1008.50  0.0000E+000
1009.00  0.0000E+000
1009.50  0.0000E+000
1010.00  0.0000E+000
1010.50  0.0000E+000
1011.00  0.0000E+000
1011.50  0.0000E+000
1012.00  0.0000E+000
1012.50  0.0000E+000
1013.00  0.0000E+000
1013.50  0.0000E+000
1014.00  0.0000E+000
1014.50  0.0000E+000
1015.00  0.0000E+000
1015.50  0.0000E+000
1016.00  0.0000E+000
1016.50  0.0000E+000
1017.00  0.0000E+000
1017.50  0.0000E+000
1018.00  0.0000E+000
1018.50  0.0000E+000
1019.00  0.0000E+000
1019.50  0.0000E+000
1020.00  0.0000E+000
1020.50  0.0000E+000
1021.00  0.0000E+000
1021.50  0.0000E+000
1022.00  0.0000E+000
1022.50  0.0000E+000
1023.00  0.0000E+000
1023.50  0.0000E+000
1024.00  0.0000E+000
1024.50  0.0000E+000
1025.00  0.0000E+000
1025.50  0.0000E+000
1026.00  0.0000E+000
1026.50  0.0000E+000
1027.00  0.0000E+000
1027.50  0.0000E+000
1028.00  0.0000E+000
1028.50  0.0000E+000
1029.00  0.0000E+000
1029.50  0.0000E+000
1030.00  0.0000E+000
1030.50  0.0000E+000
1031.00  0.0000E+000
1031.50  0.0000E+000
1032.00  0.0000E+000
1032.50  0.0000E+000
1033.00  0.0000E+000
1033.50  0.0000E+000
1034.00  0.0000E+000
1034.50  0.0000E+000
1035.00  0.0000E+000
1035.50  0.0000E+000
1036.00  0.0000E+000
1036.50  0.0000E+000
1037.00  0.0000E+000
1037.50  0.0000E+000
1038.00  0.0000E+000
1038.50  0.0000E+000
1039.00  0.0000E+000
1039.50  0.0000E+000
1040.00  0.0000E+000
1040.50  0.0000E+000
1041.00  0.0000E+000
1041.50  0.0000E+000
1042.00  0.0000E+000
1042.50  0.0000E+000
1043.00  0.0000E+000
1043.50  0.0000E+000
1044.00  0.0000E+000
1044.50  0.0000E+000
1045.00  0.0000E+000
1045.50  0.0000E+000
1046.00  0.0000E+000
1046.50  0.0000E+000
1047.00  0.0000E+000
1047.50  0.0000E+000
1048.00  0.0000E+000
1048.50  0.0000E+000
1049.00  0.0000E+000
1049.50  0.0000E+000
1050.00  0.0000E+000
1050.50  0.0000E+000
1051.00  0.0000E+000
1051.50  0.0000E+000
1052.00  0.0000E+000
1052.50  0.0000E+000
1053.00  0.0000E+000
1053.50  0.0000E+000
1054.00  0.0000E+000
1054.50  0.0000E+000
1055.00  0.0000E+000
1055.50  0.0000E+000
1056.00  0.0000E+000
1056.50  0.0000E+000
1057.00  0.0000E+000
1057.50  0.0000E+000
1058.00  0.0000E+000
1058.50  0.0000E+000
1059.00  0.0000E+000
1059.50  0.0000E+000
1060.00  0.0000E+000
1060.50  0.0000E+000
1061.00  0.0000E+000
1061.50  0.0000E+000
1062.00  0.0000E+000
1062.50  0.0000E+000
1063.00  0.0000E+000
1063.50  0.0000E+000
1064.00  0.0000E+000
1064.50  0.0000E+000
1065.00  0.0000E+000
1065.50  0.0000E+000
1066.00  0.0000E+000
1066.50  0.0000E+000
1067.00  0.0000E+000
1067.50  0.0000E+000
1068.00  0.0000E+000
1068.50  0.0000E+000
1069.00  0.0000E+000
1069.50  0.0000E+000
1070.00  0.0000E+000
1070.50  0.0000E+000
1071.00  0.0000E+000
1071.50  0.0000E+000
1072.00  0.0000E+000
1072.50  0.0000E+000
1073.00  0.0000E+000
1073.50  0.0000E+000
1074.00  0.0000E+000
1074.50  0.0000E+000
1075.00  0.0000E+000
1075.50  0.0000E+000
1076.00  0.0000E+000
1076.50  0.0000E+000
1077.00  0.0000E+000
1077.50  0.0000E+000
1078.00  0.0000E+000
1078.50  0.0000E+000
1079.00  0.0000E+000
1079.50  0.0000E+000
1080.00  0.0000E+000
1080.50  0.0000E+000
1081.00  0.0000E+000
1081.50  0.0000E+000
1082.00  0.0000E+000
1082.50  0.0000E+000
1083.00  0.0000E+000
1083.50  0.0000E+000
1084.00  0.0000E+000
1084.50  0.0000E+000
1085.00  0.0000E+000
1085.50  0.0000E+000
1086.00  0.0000E+000
1086.50  0.0000E+000
1087.00  0.0000E+000
1087.50  0.0000E+000
1088.00  0.0000E+000
1088.50  0.0000E+000
1089.00  0.0000E+000
1089.50  0.0000E+000
1090.00  0.0000E+000
1090.50  0.0000E+000
1091.00  0.0000E+000
1091.50  0.0000E+000
1092.00  0.0000E+000
1092.50  0.0000E+000
1093.00  0.0000E+000
1093.50  0.0000E+000
1094.00  0.0000E+000
1094.50  0.0000E+000
1095.00  0.0000E+000
1095.50  0.0000E+000
1096.00  0.0000E+000
1096.50  0.0000E+000
1097.00  0.0000E+000
1097.50  0.0000E+000
1098.00  0.0000E+000
1098.50  0.0000E+000
1099.00  0.0000E+000
1099.50  0.0000E+000
1100.00  0.0000E+000
1100.50  0.0000E+000
1101.00  0.0000E+000
1101.50  0.0000E+000
1102.00  0.0000E+000
1102.50  0.0000E+000
1103.00  0.0000E+000
1103.50  0.0000E+000
1104.00  0.0000E+000
1104.50  0.0000E+000
1105.00  0.0000E+000
1105.50  0.0000E+000
1106.00  0.0000E+000
1106.50  0.0000E+000
1107.00  0.0000E+000
1107.50  0.0000E+000
1108.00  0.0000E+000
1108.50  0.0000E+000
1109.00  0.0000E+000
1109.50  0.0000E+000
1110.00  0.0000E+000
1110.50  0.0000E+000
1111.00  0.0000E+000
1111.50  0.0000E+000
1112.00  0.0000E+000
1112.50  0.0000E+000
1113.00  0.0000E+000
1113.50  0.0000E+000
1114.00  0.0000E+000
1114.50  0.0000E+000
1115.00  0.0000E+000
1115.50  0.0000E+000
1116.00  0.0000E+000
1116.50  0.0000E+000
1117.00  0.0000E+000
1117.50  0.0000E+000
1118.00  0.0000E+000
1118.50  0.0000E+000
1119.00  0.0000E+000
1119.50  0.0000E+000
1120.00  0.0000E+000
1120.50  0.0000E+000
1121.00  0.0000E+000
1121.50  0.0000E+000
1122.00  0.0000E+000
1122.50  0.0000E+000
1123.00  0.0000E+000
1123.50  0.0000E+000
1124.00  0.0000E+000
1124.50  0.0000E+000
1125.00  0.0000E+000
1125.50  0.0000E+000
1126.00  0.0000E+000
1126.50  0.0000E+000
1127.00  0.0000E+000
1127.50  0.0000E+000
: 6
