" File: 160128_ReferenceSpectra\21.IRR
" RAD->  Wave:366.44nm  Pix:434  Val:  0.000  Time:350ms  Avg:5  Sm:1  Sg:1  Tc:off  SNAP  Xt:1  Ch:1  Xtrig wnmcal >RAD-IS6.CAL
 180.00  0.0000E+000
 180.50  0.0000E+000
 181.00  0.0000E+000
 181.50  0.0000E+000
 182.00  0.0000E+000
 182.50  0.0000E+000
 183.00  0.0000E+000
 183.50  0.0000E+000
 184.00  0.0000E+000
 184.50  0.0000E+000
 185.00  0.0000E+000
 185.50  0.0000E+000
 186.00  0.0000E+000
 186.50  0.0000E+000
 187.00  0.0000E+000
 187.50  0.0000E+000
 188.00  0.0000E+000
 188.50  0.0000E+000
 189.00  0.0000E+000
 189.50  0.0000E+000
 190.00  0.0000E+000
 190.50  0.0000E+000
 191.00  0.0000E+000
 191.50  0.0000E+000
 192.00  0.0000E+000
 192.50  0.0000E+000
 193.00  0.0000E+000
 193.50  0.0000E+000
 194.00  0.0000E+000
 194.50  0.0000E+000
 195.00  0.0000E+000
 195.50  0.0000E+000
 196.00  0.0000E+000
 196.50  0.0000E+000
 197.00  0.0000E+000
 197.50  0.0000E+000
 198.00  0.0000E+000
 198.50  0.0000E+000
 199.00  0.0000E+000
 199.50  0.0000E+000
 200.00  0.0000E+000
 200.50  0.0000E+000
 201.00  0.0000E+000
 201.50  0.0000E+000
 202.00  0.0000E+000
 202.50  0.0000E+000
 203.00  0.0000E+000
 203.50  0.0000E+000
 204.00  0.0000E+000
 204.50  0.0000E+000
 205.00  0.0000E+000
 205.50  0.0000E+000
 206.00  0.0000E+000
 206.50  0.0000E+000
 207.00  0.0000E+000
 207.50  0.0000E+000
 208.00  0.0000E+000
 208.50  0.0000E+000
 209.00  0.0000E+000
 209.50  0.0000E+000
 210.00  0.0000E+000
 210.50  0.0000E+000
 211.00  0.0000E+000
 211.50  0.0000E+000
 212.00  0.0000E+000
 212.50  0.0000E+000
 213.00  0.0000E+000
 213.50  0.0000E+000
 214.00  0.0000E+000
 214.50  0.0000E+000
 215.00  0.0000E+000
 215.50  0.0000E+000
 216.00  0.0000E+000
 216.50  0.0000E+000
 217.00  0.0000E+000
 217.50  0.0000E+000
 218.00  0.0000E+000
 218.50  0.0000E+000
 219.00  0.0000E+000
 219.50  0.0000E+000
 220.00  0.0000E+000
 220.50  0.0000E+000
 221.00  0.0000E+000
 221.50  0.0000E+000
 222.00  0.0000E+000
 222.50  0.0000E+000
 223.00  0.0000E+000
 223.50  0.0000E+000
 224.00  0.0000E+000
 224.50  0.0000E+000
 225.00  0.0000E+000
 225.50  0.0000E+000
 226.00  0.0000E+000
 226.50  0.0000E+000
 227.00  0.0000E+000
 227.50  0.0000E+000
 228.00  0.0000E+000
 228.50  0.0000E+000
 229.00  0.0000E+000
 229.50  0.0000E+000
 230.00  0.0000E+000
 230.50  0.0000E+000
 231.00  0.0000E+000
 231.50  0.0000E+000
 232.00  0.0000E+000
 232.50  0.0000E+000
 233.00  0.0000E+000
 233.50  0.0000E+000
 234.00  0.0000E+000
 234.50  0.0000E+000
 235.00  0.0000E+000
 235.50  0.0000E+000
 236.00  0.0000E+000
 236.50  0.0000E+000
 237.00  0.0000E+000
 237.50  0.0000E+000
 238.00  0.0000E+000
 238.50  0.0000E+000
 239.00  0.0000E+000
 239.50  0.0000E+000
 240.00  0.0000E+000
 240.50  0.0000E+000
 241.00  0.0000E+000
 241.50  0.0000E+000
 242.00  0.0000E+000
 242.50  0.0000E+000
 243.00  0.0000E+000
 243.50  0.0000E+000
 244.00  0.0000E+000
 244.50  0.0000E+000
 245.00  0.0000E+000
 245.50  0.0000E+000
 246.00  0.0000E+000
 246.50  0.0000E+000
 247.00  0.0000E+000
 247.50  0.0000E+000
 248.00  0.0000E+000
 248.50  0.0000E+000
 249.00  0.0000E+000
 249.50  0.0000E+000
 250.00  0.0000E+000
 250.50  0.0000E+000
 251.00  0.0000E+000
 251.50  0.0000E+000
 252.00  0.0000E+000
 252.50  0.0000E+000
 253.00  0.0000E+000
 253.50  0.0000E+000
 254.00  0.0000E+000
 254.50  0.0000E+000
 255.00  0.0000E+000
 255.50  0.0000E+000
 256.00  0.0000E+000
 256.50  0.0000E+000
 257.00  0.0000E+000
 257.50  0.0000E+000
 258.00  0.0000E+000
 258.50  0.0000E+000
 259.00  0.0000E+000
 259.50  0.0000E+000
 260.00  0.0000E+000
 260.50  0.0000E+000
 261.00  0.0000E+000
 261.50  0.0000E+000
 262.00  0.0000E+000
 262.50  0.0000E+000
 263.00  0.0000E+000
 263.50  0.0000E+000
 264.00  0.0000E+000
 264.50  0.0000E+000
 265.00  0.0000E+000
 265.50  0.0000E+000
 266.00  0.0000E+000
 266.50  0.0000E+000
 267.00  0.0000E+000
 267.50  0.0000E+000
 268.00  0.0000E+000
 268.50  0.0000E+000
 269.00  0.0000E+000
 269.50  0.0000E+000
 270.00  0.0000E+000
 270.50  0.0000E+000
 271.00  0.0000E+000
 271.50  0.0000E+000
 272.00  0.0000E+000
 272.50  0.0000E+000
 273.00  0.0000E+000
 273.50  0.0000E+000
 274.00  0.0000E+000
 274.50  0.0000E+000
 275.00  0.0000E+000
 275.50  0.0000E+000
 276.00  0.0000E+000
 276.50  0.0000E+000
 277.00  0.0000E+000
 277.50  0.0000E+000
 278.00  0.0000E+000
 278.50  0.0000E+000
 279.00  0.0000E+000
 279.50  0.0000E+000
 280.00  0.0000E+000
 280.50  0.0000E+000
 281.00  0.0000E+000
 281.50  0.0000E+000
 282.00  0.0000E+000
 282.50  0.0000E+000
 283.00  0.0000E+000
 283.50  0.0000E+000
 284.00  0.0000E+000
 284.50  0.0000E+000
 285.00  0.0000E+000
 285.50  0.0000E+000
 286.00  0.0000E+000
 286.50  0.0000E+000
 287.00  0.0000E+000
 287.50  0.0000E+000
 288.00  0.0000E+000
 288.50  0.0000E+000
 289.00  0.0000E+000
 289.50  0.0000E+000
 290.00  0.0000E+000
 290.50  0.0000E+000
 291.00  0.0000E+000
 291.50  0.0000E+000
 292.00  0.0000E+000
 292.50  0.0000E+000
 293.00  0.0000E+000
 293.50  0.0000E+000
 294.00  0.0000E+000
 294.50  0.0000E+000
 295.00  0.0000E+000
 295.50  0.0000E+000
 296.00  0.0000E+000
 296.50  0.0000E+000
 297.00  0.0000E+000
 297.50  0.0000E+000
 298.00  0.0000E+000
 298.50  0.0000E+000
 299.00  0.0000E+000
 299.50  0.0000E+000
 300.00  0.0000E+000
 300.50  0.0000E+000
 301.00  0.0000E+000
 301.50  0.0000E+000
 302.00  0.0000E+000
 302.50  0.0000E+000
 303.00  0.0000E+000
 303.50  0.0000E+000
 304.00  0.0000E+000
 304.50  0.0000E+000
 305.00  0.0000E+000
 305.50  0.0000E+000
 306.00  0.0000E+000
 306.50  0.0000E+000
 307.00  0.0000E+000
 307.50  0.0000E+000
 308.00  0.0000E+000
 308.50  0.0000E+000
 309.00  0.0000E+000
 309.50  0.0000E+000
 310.00  0.0000E+000
 310.50  0.0000E+000
 311.00  0.0000E+000
 311.50  0.0000E+000
 312.00  0.0000E+000
 312.50  0.0000E+000
 313.00  0.0000E+000
 313.50  0.0000E+000
 314.00  0.0000E+000
 314.50  0.0000E+000
 315.00  0.0000E+000
 315.50  0.0000E+000
 316.00  0.0000E+000
 316.50  0.0000E+000
 317.00  0.0000E+000
 317.50  0.0000E+000
 318.00  0.0000E+000
 318.50  0.0000E+000
 319.00  0.0000E+000
 319.50  0.0000E+000
 320.00  0.0000E+000
 320.50  0.0000E+000
 321.00  0.0000E+000
 321.50  0.0000E+000
 322.00  0.0000E+000
 322.50  0.0000E+000
 323.00  0.0000E+000
 323.50  0.0000E+000
 324.00  0.0000E+000
 324.50  0.0000E+000
 325.00  0.0000E+000
 325.50  0.0000E+000
 326.00  0.0000E+000
 326.50  0.0000E+000
 327.00  0.0000E+000
 327.50  0.0000E+000
 328.00  0.0000E+000
 328.50  0.0000E+000
 329.00  0.0000E+000
 329.50  0.0000E+000
 330.00  0.0000E+000
 330.50  0.0000E+000
 331.00  0.0000E+000
 331.50  0.0000E+000
 332.00  0.0000E+000
 332.50  0.0000E+000
 333.00  0.0000E+000
 333.50  0.0000E+000
 334.00  0.0000E+000
 334.50  0.0000E+000
 335.00  0.0000E+000
 335.50  0.0000E+000
 336.00  0.0000E+000
 336.50  0.0000E+000
 337.00  0.0000E+000
 337.50  0.0000E+000
 338.00  0.0000E+000
 338.50  0.0000E+000
 339.00  0.0000E+000
 339.50  0.0000E+000
 340.00  0.0000E+000
 340.50  0.0000E+000
 341.00  0.0000E+000
 341.50  0.0000E+000
 342.00  0.0000E+000
 342.50  0.0000E+000
 343.00  0.0000E+000
 343.50  0.0000E+000
 344.00  0.0000E+000
 344.50  0.0000E+000
 345.00  0.0000E+000
 345.50  0.0000E+000
 346.00  0.0000E+000
 346.50  0.0000E+000
 347.00  0.0000E+000
 347.50  0.0000E+000
 348.00  0.0000E+000
 348.50  0.0000E+000
 349.00  0.0000E+000
 349.50  0.0000E+000
 350.00  0.0000E+000
 350.50  0.0000E+000
 351.00  0.0000E+000
 351.50  0.0000E+000
 352.00  0.0000E+000
 352.50  0.0000E+000
 353.00  0.0000E+000
 353.50  0.0000E+000
 354.00  0.0000E+000
 354.50  0.0000E+000
 355.00  0.0000E+000
 355.50  0.0000E+000
 356.00  0.0000E+000
 356.50  0.0000E+000
 357.00  0.0000E+000
 357.50  0.0000E+000
 358.00  0.0000E+000
 358.50  0.0000E+000
 359.00  0.0000E+000
 359.50  1.6206E-009
 360.00  1.5356E-008
 360.50  1.6661E-008
 361.00  1.8277E-008
 361.50  1.8474E-008
 362.00  3.7852E-008
 362.50  4.2297E-008
 363.00  6.1356E-008
 363.50  7.3753E-008
 364.00  8.2720E-008
 364.50  8.4026E-008
 365.00  8.3846E-008
 365.50  8.3782E-008
 366.00  8.6484E-008
 366.50  9.7951E-008
 367.00  1.1891E-007
 367.50  1.3132E-007
 368.00  1.2526E-007
 368.50  1.1880E-007
 369.00  1.0288E-007
 369.50  7.3554E-008
 370.00  4.7914E-008
 370.50  2.1915E-008
 371.00  0.0000E+000
 371.50  0.0000E+000
 372.00  0.0000E+000
 372.50  0.0000E+000
 373.00  0.0000E+000
 373.50  0.0000E+000
 374.00  2.7870E-008
 374.50  4.2129E-008
 375.00  7.5502E-008
 375.50  9.3191E-008
 376.00  1.0927E-007
 376.50  1.1420E-007
 377.00  1.2346E-007
 377.50  1.2175E-007
 378.00  1.0209E-007
 378.50  9.3706E-008
 379.00  7.8198E-008
 379.50  9.6924E-008
 380.00  1.2134E-007
 380.50  1.5730E-007
 381.00  1.9683E-007
 381.50  2.2813E-007
 382.00  2.6075E-007
 382.50  2.5887E-007
 383.00  2.4299E-007
 383.50  2.1140E-007
 384.00  1.7420E-007
 384.50  1.3187E-007
 385.00  9.4469E-008
 385.50  8.1040E-008
 386.00  1.3012E-007
 386.50  1.9722E-007
 387.00  2.7263E-007
 387.50  3.0850E-007
 388.00  3.1775E-007
 388.50  2.8224E-007
 389.00  2.6225E-007
 389.50  2.6535E-007
 390.00  2.8974E-007
 390.50  3.3870E-007
 391.00  4.2210E-007
 391.50  4.6337E-007
 392.00  4.9080E-007
 392.50  4.7185E-007
 393.00  4.3574E-007
 393.50  3.6123E-007
 394.00  3.2633E-007
 394.50  3.3669E-007
 395.00  3.4925E-007
 395.50  3.4918E-007
 396.00  3.3527E-007
 396.50  3.0176E-007
 397.00  2.5651E-007
 397.50  1.9762E-007
 398.00  1.9233E-007
 398.50  2.0391E-007
 399.00  1.8901E-007
 399.50  1.8535E-007
 400.00  1.3363E-007
 400.50  8.9023E-008
 401.00  3.6475E-008
 401.50  2.3388E-008
 402.00  1.9219E-008
 402.50  3.5617E-008
 403.00  5.7711E-008
 403.50  7.7744E-008
 404.00  1.2255E-007
 404.50  1.4952E-007
 405.00  1.7675E-007
 405.50  1.8082E-007
 406.00  1.6979E-007
 406.50  1.4685E-007
 407.00  1.2400E-007
 407.50  8.5436E-008
 408.00  5.9903E-008
 408.50  3.3818E-008
 409.00  2.4429E-008
 409.50  5.0745E-008
 410.00  8.4076E-008
 410.50  1.2397E-007
 411.00  1.6226E-007
 411.50  1.9305E-007
 412.00  2.2412E-007
 412.50  2.4759E-007
 413.00  3.3893E-007
 413.50  3.6332E-007
 414.00  4.1052E-007
 414.50  4.4200E-007
 415.00  4.4628E-007
 415.50  4.1251E-007
 416.00  3.6148E-007
 416.50  2.8984E-007
 417.00  2.2376E-007
 417.50  1.5171E-007
 418.00  1.3872E-007
 418.50  1.5541E-007
 419.00  1.8498E-007
 419.50  2.0758E-007
 420.00  2.3159E-007
 420.50  2.4576E-007
 421.00  2.3517E-007
 421.50  2.2379E-007
 422.00  2.1761E-007
 422.50  2.2634E-007
 423.00  2.1137E-007
 423.50  2.1353E-007
 424.00  2.2578E-007
 424.50  2.3659E-007
 425.00  2.4418E-007
 425.50  2.6769E-007
 426.00  2.6943E-007
 426.50  2.8472E-007
 427.00  2.8595E-007
 427.50  2.9922E-007
 428.00  2.7324E-007
 428.50  2.7195E-007
 429.00  2.8890E-007
 429.50  3.1012E-007
 430.00  3.6057E-007
 430.50  3.8859E-007
 431.00  3.9657E-007
 431.50  3.6990E-007
 432.00  3.3846E-007
 432.50  2.9488E-007
 433.00  2.6518E-007
 433.50  2.2004E-007
 434.00  1.7790E-007
 434.50  1.4689E-007
 435.00  1.4137E-007
 435.50  1.4725E-007
 436.00  1.8229E-007
 436.50  2.4606E-007
 437.00  3.2690E-007
 437.50  3.6447E-007
 438.00  3.6837E-007
 438.50  3.4395E-007
 439.00  3.0200E-007
 439.50  2.9213E-007
 440.00  3.2744E-007
 440.50  3.6211E-007
 441.00  4.0073E-007
 441.50  4.4462E-007
 442.00  4.4489E-007
 442.50  4.2088E-007
 443.00  3.8980E-007
 443.50  3.4297E-007
 444.00  2.9065E-007
 444.50  2.5577E-007
 445.00  2.5759E-007
 445.50  2.3420E-007
 446.00  2.1129E-007
 446.50  2.0061E-007
 447.00  1.9987E-007
 447.50  2.3218E-007
 448.00  2.5799E-007
 448.50  2.5318E-007
 449.00  2.5031E-007
 449.50  2.2091E-007
 450.00  1.6803E-007
 450.50  1.5054E-007
 451.00  1.4806E-007
 451.50  1.1951E-007
 452.00  1.0844E-007
 452.50  1.1523E-007
 453.00  1.0975E-007
 453.50  1.1775E-007
 454.00  1.4421E-007
 454.50  1.1016E-007
 455.00  9.1338E-008
 455.50  6.9056E-008
 456.00  6.4692E-008
 456.50  6.3820E-008
 457.00  7.7479E-008
 457.50  8.2861E-008
 458.00  6.8148E-008
 458.50  4.5475E-008
 459.00  4.1362E-008
 459.50  5.3395E-008
 460.00  6.4954E-008
 460.50  7.4324E-008
 461.00  8.5035E-008
 461.50  7.2378E-008
 462.00  6.4374E-008
 462.50  6.5911E-008
 463.00  5.4516E-008
 463.50  5.1521E-008
 464.00  4.8962E-008
 464.50  4.9981E-008
 465.00  4.2268E-008
 465.50  4.9632E-008
 466.00  6.8012E-008
 466.50  9.5549E-008
 467.00  1.2889E-007
 467.50  1.7420E-007
 468.00  1.9156E-007
 468.50  1.8472E-007
 469.00  1.5569E-007
 469.50  1.3010E-007
 470.00  1.1586E-007
 470.50  1.3605E-007
 471.00  1.6244E-007
 471.50  1.7847E-007
 472.00  1.9653E-007
 472.50  2.0596E-007
 473.00  1.8169E-007
 473.50  1.8380E-007
 474.00  1.7963E-007
 474.50  1.6888E-007
 475.00  1.3448E-007
 475.50  1.0393E-007
 476.00  8.1490E-008
 476.50  4.6377E-008
 477.00  3.0378E-008
 477.50  4.7828E-008
 478.00  6.9161E-008
 478.50  8.4354E-008
 479.00  9.1053E-008
 479.50  8.6340E-008
 480.00  8.2068E-008
 480.50  8.2683E-008
 481.00  9.4999E-008
 481.50  1.1100E-007
 482.00  1.1849E-007
 482.50  1.1310E-007
 483.00  9.2690E-008
 483.50  7.7860E-008
 484.00  7.3361E-008
 484.50  7.6026E-008
 485.00  7.7408E-008
 485.50  8.5244E-008
 486.00  8.1105E-008
 486.50  6.2144E-008
 487.00  5.9407E-008
 487.50  5.8956E-008
 488.00  6.3167E-008
 488.50  9.0893E-008
 489.00  1.2791E-007
 489.50  1.3488E-007
 490.00  1.4515E-007
 490.50  1.5177E-007
 491.00  1.5437E-007
 491.50  1.3386E-007
 492.00  1.1189E-007
 492.50  9.7396E-008
 493.00  6.5753E-008
 493.50  4.2715E-008
 494.00  6.0868E-008
 494.50  6.5623E-008
 495.00  7.9764E-008
 495.50  1.2391E-007
 496.00  1.7197E-007
 496.50  2.0309E-007
 497.00  2.1702E-007
 497.50  2.1210E-007
 498.00  1.8354E-007
 498.50  1.5854E-007
 499.00  1.5258E-007
 499.50  1.6471E-007
 500.00  1.7627E-007
 500.50  1.9546E-007
 501.00  2.0696E-007
 501.50  2.2433E-007
 502.00  2.3696E-007
 502.50  2.2109E-007
 503.00  2.1406E-007
 503.50  2.1854E-007
 504.00  2.2136E-007
 504.50  2.2065E-007
 505.00  2.2230E-007
 505.50  2.1256E-007
 506.00  1.9509E-007
 506.50  1.7627E-007
 507.00  1.7822E-007
 507.50  1.8944E-007
 508.00  1.9801E-007
 508.50  2.1552E-007
 509.00  2.3134E-007
 509.50  2.5175E-007
 510.00  2.6683E-007
 510.50  2.4089E-007
 511.00  2.0467E-007
 511.50  1.7641E-007
 512.00  1.4868E-007
 512.50  1.3316E-007
 513.00  1.4315E-007
 513.50  1.5191E-007
 514.00  1.6039E-007
 514.50  1.7472E-007
 515.00  1.9323E-007
 515.50  1.8981E-007
 516.00  1.7695E-007
 516.50  1.3778E-007
 517.00  8.2496E-008
 517.50  4.5041E-008
 518.00  2.5022E-008
 518.50  1.0256E-008
 519.00  1.7310E-008
 519.50  4.3921E-008
 520.00  6.9918E-008
 520.50  7.0506E-008
 521.00  9.1876E-008
 521.50  9.3294E-008
 522.00  7.4359E-008
 522.50  9.5297E-008
 523.00  1.3922E-007
 523.50  1.8149E-007
 524.00  2.2620E-007
 524.50  2.6001E-007
 525.00  2.2925E-007
 525.50  1.7675E-007
 526.00  1.2303E-007
 526.50  7.6273E-008
 527.00  3.9361E-008
 527.50  1.5667E-008
 528.00  3.6062E-009
 528.50  7.7021E-010
 529.00  1.3752E-008
 529.50  1.8068E-008
 530.00  1.8534E-008
 530.50  2.3972E-008
 531.00  3.5268E-008
 531.50  4.2612E-008
 532.00  8.8840E-008
 532.50  1.0785E-007
 533.00  1.2748E-007
 533.50  1.5284E-007
 534.00  1.6201E-007
 534.50  1.6519E-007
 535.00  1.7469E-007
 535.50  1.8026E-007
 536.00  1.7548E-007
 536.50  1.7169E-007
 537.00  2.0762E-007
 537.50  2.5032E-007
 538.00  2.8127E-007
 538.50  2.7771E-007
 539.00  2.8340E-007
 539.50  2.9219E-007
 540.00  2.6408E-007
 540.50  3.0635E-007
 541.00  3.2819E-007
 541.50  3.4637E-007
 542.00  3.0546E-007
 542.50  2.6836E-007
 543.00  2.3154E-007
 543.50  2.3592E-007
 544.00  2.8310E-007
 544.50  3.5767E-007
 545.00  4.1020E-007
 545.50  4.2267E-007
 546.00  4.0557E-007
 546.50  3.3881E-007
 547.00  2.8162E-007
 547.50  2.3942E-007
 548.00  1.9024E-007
 548.50  1.2720E-007
 549.00  9.7329E-008
 549.50  8.9172E-008
 550.00  1.2795E-007
 550.50  2.3763E-007
 551.00  2.6756E-007
 551.50  2.8410E-007
 552.00  3.0033E-007
 552.50  2.9910E-007
 553.00  2.6631E-007
 553.50  3.0323E-007
 554.00  3.2793E-007
 554.50  3.2396E-007
 555.00  2.9142E-007
 555.50  2.7831E-007
 556.00  2.5531E-007
 556.50  2.1749E-007
 557.00  1.7556E-007
 557.50  1.5966E-007
 558.00  1.4950E-007
 558.50  1.5899E-007
 559.00  1.7911E-007
 559.50  1.9163E-007
 560.00  1.9992E-007
 560.50  2.0708E-007
 561.00  2.2027E-007
 561.50  2.4357E-007
 562.00  2.8298E-007
 562.50  2.6559E-007
 563.00  2.6403E-007
 563.50  2.4586E-007
 564.00  2.6802E-007
 564.50  2.9388E-007
 565.00  3.4607E-007
 565.50  3.8348E-007
 566.00  4.1288E-007
 566.50  4.1403E-007
 567.00  4.3248E-007
 567.50  4.5554E-007
 568.00  4.6788E-007
 568.50  4.8384E-007
 569.00  5.0065E-007
 569.50  5.1321E-007
 570.00  4.9543E-007
 570.50  4.6891E-007
 571.00  4.7159E-007
 571.50  4.7125E-007
 572.00  4.4155E-007
 572.50  4.6006E-007
 573.00  4.8859E-007
 573.50  4.9111E-007
 574.00  5.4612E-007
 574.50  6.0660E-007
 575.00  6.2238E-007
 575.50  6.0363E-007
 576.00  5.3878E-007
 576.50  4.8184E-007
 577.00  4.0921E-007
 577.50  3.6810E-007
 578.00  3.3155E-007
 578.50  3.1035E-007
 579.00  3.2113E-007
 579.50  3.3582E-007
 580.00  3.5435E-007
 580.50  4.0442E-007
 581.00  5.2742E-007
 581.50  5.7401E-007
 582.00  5.9575E-007
 582.50  5.9469E-007
 583.00  5.6101E-007
 583.50  5.5111E-007
 584.00  5.4050E-007
 584.50  5.3445E-007
 585.00  5.8505E-007
 585.50  6.4151E-007
 586.00  6.3090E-007
 586.50  6.5588E-007
 587.00  6.1335E-007
 587.50  6.0589E-007
 588.00  5.3467E-007
 588.50  5.2519E-007
 589.00  5.5796E-007
 589.50  5.9512E-007
 590.00  6.3185E-007
 590.50  6.9116E-007
 591.00  7.9003E-007
 591.50  9.0565E-007
 592.00  9.9088E-007
 592.50  1.1326E-006
 593.00  1.1534E-006
 593.50  1.1659E-006
 594.00  1.2036E-006
 594.50  1.1845E-006
 595.00  1.1548E-006
 595.50  1.1617E-006
 596.00  1.0889E-006
 596.50  9.6551E-007
 597.00  8.7841E-007
 597.50  7.6066E-007
 598.00  6.7901E-007
 598.50  6.1654E-007
 599.00  6.1305E-007
 599.50  5.8732E-007
 600.00  6.1670E-007
 600.50  6.8325E-007
 601.00  7.7083E-007
 601.50  7.8789E-007
 602.00  8.3138E-007
 602.50  9.1505E-007
 603.00  9.3838E-007
 603.50  9.5784E-007
 604.00  9.9797E-007
 604.50  9.8565E-007
 605.00  9.0176E-007
 605.50  8.9389E-007
 606.00  9.7595E-007
 606.50  1.0948E-006
 607.00  1.2274E-006
 607.50  1.3165E-006
 608.00  1.3419E-006
 608.50  1.3315E-006
 609.00  1.3300E-006
 609.50  1.2774E-006
 610.00  1.2003E-006
 610.50  1.1732E-006
 611.00  1.1008E-006
 611.50  9.8720E-007
 612.00  9.7112E-007
 612.50  9.9523E-007
 613.00  1.0497E-006
 613.50  1.0977E-006
 614.00  1.1499E-006
 614.50  1.1558E-006
 615.00  1.1318E-006
 615.50  1.0934E-006
 616.00  9.8740E-007
 616.50  9.4644E-007
 617.00  9.2469E-007
 617.50  8.9105E-007
 618.00  8.8483E-007
 618.50  9.3962E-007
 619.00  1.0274E-006
 619.50  1.0827E-006
 620.00  1.1438E-006
 620.50  1.2230E-006
 621.00  1.2373E-006
 621.50  1.2262E-006
 622.00  1.1995E-006
 622.50  1.1167E-006
 623.00  1.0447E-006
 623.50  1.0826E-006
 624.00  1.1055E-006
 624.50  1.1790E-006
 625.00  1.3299E-006
 625.50  1.4316E-006
 626.00  1.4457E-006
 626.50  1.4255E-006
 627.00  1.3598E-006
 627.50  1.2102E-006
 628.00  1.0696E-006
 628.50  1.0312E-006
 629.00  9.7329E-007
 629.50  9.3826E-007
 630.00  9.3123E-007
 630.50  9.8375E-007
 631.00  1.0393E-006
 631.50  1.1710E-006
 632.00  1.3661E-006
 632.50  1.5040E-006
 633.00  1.6157E-006
 633.50  1.7696E-006
 634.00  1.9031E-006
 634.50  2.0741E-006
 635.00  2.3164E-006
 635.50  2.4353E-006
 636.00  2.4208E-006
 636.50  2.4046E-006
 637.00  2.3271E-006
 637.50  2.2368E-006
 638.00  2.1838E-006
 638.50  2.1560E-006
 639.00  2.1616E-006
 639.50  2.1443E-006
 640.00  2.1679E-006
 640.50  2.2499E-006
 641.00  2.2493E-006
 641.50  2.2133E-006
 642.00  2.1950E-006
 642.50  2.0661E-006
 643.00  1.9751E-006
 643.50  1.9171E-006
 644.00  1.9770E-006
 644.50  2.0533E-006
 645.00  2.2163E-006
 645.50  2.2647E-006
 646.00  2.1915E-006
 646.50  2.0493E-006
 647.00  1.9230E-006
 647.50  1.8409E-006
 648.00  1.9040E-006
 648.50  2.0377E-006
 649.00  2.1193E-006
 649.50  2.1659E-006
 650.00  2.2668E-006
 650.50  2.3060E-006
 651.00  2.3993E-006
 651.50  2.5241E-006
 652.00  2.6525E-006
 652.50  2.7533E-006
 653.00  2.8915E-006
 653.50  2.9799E-006
 654.00  3.0304E-006
 654.50  3.0732E-006
 655.00  3.1316E-006
 655.50  3.2270E-006
 656.00  3.3504E-006
 656.50  3.4721E-006
 657.00  3.5459E-006
 657.50  3.4678E-006
 658.00  3.3322E-006
 658.50  3.2489E-006
 659.00  3.3278E-006
 659.50  3.3219E-006
 660.00  3.2824E-006
 660.50  3.3680E-006
 661.00  3.4780E-006
 661.50  3.4693E-006
 662.00  3.6434E-006
 662.50  3.9195E-006
 663.00  4.0659E-006
 663.50  4.0352E-006
 664.00  4.1759E-006
 664.50  4.1298E-006
 665.00  4.0989E-006
 665.50  4.0956E-006
 666.00  4.1523E-006
 666.50  4.2120E-006
 667.00  4.3035E-006
 667.50  4.3597E-006
 668.00  4.3521E-006
 668.50  4.3230E-006
 669.00  4.3012E-006
 669.50  4.2590E-006
 670.00  4.2959E-006
 670.50  4.2997E-006
 671.00  4.4071E-006
 671.50  4.4824E-006
 672.00  4.5484E-006
 672.50  4.7074E-006
 673.00  4.8387E-006
 673.50  4.9058E-006
 674.00  4.9840E-006
 674.50  5.0398E-006
 675.00  5.0791E-006
 675.50  5.1628E-006
 676.00  5.2681E-006
 676.50  5.4699E-006
 677.00  5.6248E-006
 677.50  5.8064E-006
 678.00  5.9048E-006
 678.50  6.0773E-006
 679.00  6.2071E-006
 679.50  6.3865E-006
 680.00  6.6782E-006
 680.50  7.0473E-006
 681.00  7.3701E-006
 681.50  7.5601E-006
 682.00  7.6737E-006
 682.50  7.7947E-006
 683.00  8.0136E-006
 683.50  8.3633E-006
 684.00  8.7763E-006
 684.50  8.9978E-006
 685.00  9.1252E-006
 685.50  9.0670E-006
 686.00  9.0627E-006
 686.50  9.2557E-006
 687.00  9.5285E-006
 687.50  9.8081E-006
 688.00  1.0077E-005
 688.50  1.0236E-005
 689.00  1.0375E-005
 689.50  1.0587E-005
 690.00  1.0844E-005
 690.50  1.1129E-005
 691.00  1.1495E-005
 691.50  1.1995E-005
 692.00  1.2714E-005
 692.50  1.3402E-005
 693.00  1.3858E-005
 693.50  1.4208E-005
 694.00  1.4449E-005
 694.50  1.4559E-005
 695.00  1.4769E-005
 695.50  1.5172E-005
 696.00  1.5678E-005
 696.50  1.6224E-005
 697.00  1.6700E-005
 697.50  1.7292E-005
 698.00  1.7970E-005
 698.50  1.8605E-005
 699.00  1.9357E-005
 699.50  2.0236E-005
 700.00  2.1027E-005
 700.50  2.1770E-005
 701.00  2.2533E-005
 701.50  2.3325E-005
 702.00  2.4208E-005
 702.50  2.5245E-005
 703.00  2.6477E-005
 703.50  2.7597E-005
 704.00  2.8744E-005
 704.50  3.0021E-005
 705.00  3.1234E-005
 705.50  3.2508E-005
 706.00  3.3925E-005
 706.50  3.5267E-005
 707.00  3.6552E-005
 707.50  3.7897E-005
 708.00  3.9235E-005
 708.50  4.0597E-005
 709.00  4.2197E-005
 709.50  4.3940E-005
 710.00  4.5828E-005
 710.50  4.7905E-005
 711.00  5.0073E-005
 711.50  5.2251E-005
 712.00  5.4604E-005
 712.50  5.6892E-005
 713.00  5.9040E-005
 713.50  6.1234E-005
 714.00  6.3427E-005
 714.50  6.5543E-005
 715.00  6.8254E-005
 715.50  7.0824E-005
 716.00  7.3615E-005
 716.50  7.6519E-005
 717.00  7.9463E-005
 717.50  8.2259E-005
 718.00  8.5275E-005
 718.50  8.8215E-005
 719.00  9.1216E-005
 719.50  9.4389E-005
 720.00  9.7966E-005
 720.50  1.0175E-004
 721.00  1.0560E-004
 721.50  1.0956E-004
 722.00  1.1359E-004
 722.50  1.1766E-004
 723.00  1.2190E-004
 723.50  1.2610E-004
 724.00  1.3023E-004
 724.50  1.3439E-004
 725.00  1.3869E-004
 725.50  1.4320E-004
 726.00  1.4821E-004
 726.50  1.5366E-004
 727.00  1.5959E-004
 727.50  1.6589E-004
 728.00  1.7250E-004
 728.50  1.7931E-004
 729.00  1.8618E-004
 729.50  1.9311E-004
 730.00  2.0032E-004
 730.50  2.0790E-004
 731.00  2.1577E-004
 731.50  2.2405E-004
 732.00  2.3259E-004
 732.50  2.4146E-004
 733.00  2.5059E-004
 733.50  2.6031E-004
 734.00  2.7046E-004
 734.50  2.8114E-004
 735.00  2.9234E-004
 735.50  3.0406E-004
 736.00  3.1630E-004
 736.50  3.2903E-004
 737.00  3.4206E-004
 737.50  3.5542E-004
 738.00  3.6924E-004
 738.50  3.8344E-004
 739.00  3.9835E-004
 739.50  4.1430E-004
 740.00  4.3081E-004
 740.50  4.4763E-004
 741.00  4.6451E-004
 741.50  4.8172E-004
 742.00  4.9934E-004
 742.50  5.1768E-004
 743.00  5.3700E-004
 743.50  5.5740E-004
 744.00  5.7843E-004
 744.50  5.9974E-004
 745.00  6.2152E-004
 745.50  6.4378E-004
 746.00  6.6691E-004
 746.50  6.9122E-004
 747.00  7.1684E-004
 747.50  7.4327E-004
 748.00  7.7019E-004
 748.50  7.9754E-004
 749.00  8.2545E-004
 749.50  8.5404E-004
 750.00  8.8359E-004
 750.50  9.1417E-004
 751.00  9.4573E-004
 751.50  9.7841E-004
 752.00  1.0121E-003
 752.50  1.0473E-003
 753.00  1.0837E-003
 753.50  1.1216E-003
 754.00  1.1611E-003
 754.50  1.2020E-003
 755.00  1.2435E-003
 755.50  1.2860E-003
 756.00  1.3291E-003
 756.50  1.3729E-003
 757.00  1.4184E-003
 757.50  1.4660E-003
 758.00  1.5155E-003
 758.50  1.5672E-003
 759.00  1.6216E-003
 759.50  1.6789E-003
 760.00  1.7389E-003
 760.50  1.8009E-003
 761.00  1.8645E-003
 761.50  1.9290E-003
 762.00  1.9944E-003
 762.50  2.0614E-003
 763.00  2.1303E-003
 763.50  2.2013E-003
 764.00  2.2746E-003
 764.50  2.3488E-003
 765.00  2.4244E-003
 765.50  2.5021E-003
 766.00  2.5822E-003
 766.50  2.6644E-003
 767.00  2.7478E-003
 767.50  2.8320E-003
 768.00  2.9155E-003
 768.50  2.9982E-003
 769.00  3.0814E-003
 769.50  3.1665E-003
 770.00  3.2530E-003
 770.50  3.3409E-003
 771.00  3.4304E-003
 771.50  3.5201E-003
 772.00  3.6083E-003
 772.50  3.6939E-003
 773.00  3.7752E-003
 773.50  3.8508E-003
 774.00  3.9197E-003
 774.50  3.9817E-003
 775.00  4.0373E-003
 775.50  4.0862E-003
 776.00  4.1278E-003
 776.50  4.1630E-003
 777.00  4.1902E-003
 777.50  4.2074E-003
 778.00  4.2134E-003
 778.50  4.2057E-003
 779.00  4.1831E-003
 779.50  4.1472E-003
 780.00  4.0996E-003
 780.50  4.0425E-003
 781.00  3.9786E-003
 781.50  3.9089E-003
 782.00  3.8328E-003
 782.50  3.7491E-003
 783.00  3.6564E-003
 783.50  3.5538E-003
 784.00  3.4428E-003
 784.50  3.3263E-003
 785.00  3.2071E-003
 785.50  3.0869E-003
 786.00  2.9683E-003
 786.50  2.8524E-003
 787.00  2.7387E-003
 787.50  2.6269E-003
 788.00  2.5171E-003
 788.50  2.4082E-003
 789.00  2.2998E-003
 789.50  2.1923E-003
 790.00  2.0866E-003
 790.50  1.9840E-003
 791.00  1.8847E-003
 791.50  1.7891E-003
 792.00  1.6973E-003
 792.50  1.6093E-003
 793.00  1.5247E-003
 793.50  1.4437E-003
 794.00  1.3661E-003
 794.50  1.2919E-003
 795.00  1.2212E-003
 795.50  1.1539E-003
 796.00  1.0902E-003
 796.50  1.0307E-003
 797.00  9.7513E-004
 797.50  9.2312E-004
 798.00  8.7434E-004
 798.50  8.2833E-004
 799.00  7.8448E-004
 799.50  7.4221E-004
 800.00  7.0210E-004
 800.50  6.6416E-004
 801.00  6.2858E-004
 801.50  5.9539E-004
 802.00  5.6528E-004
 802.50  5.3756E-004
 803.00  5.1207E-004
 803.50  4.8820E-004
 804.00  4.6609E-004
 804.50  4.4501E-004
 805.00  4.2491E-004
 805.50  4.0578E-004
 806.00  3.8758E-004
 806.50  3.7009E-004
 807.00  3.5339E-004
 807.50  3.3746E-004
 808.00  3.2226E-004
 808.50  3.0793E-004
 809.00  2.9463E-004
 809.50  2.8225E-004
 810.00  2.7091E-004
 810.50  2.6038E-004
 811.00  2.5030E-004
 811.50  2.4066E-004
 812.00  2.3147E-004
 812.50  2.2245E-004
 813.00  2.1391E-004
 813.50  2.0578E-004
 814.00  1.9791E-004
 814.50  1.9046E-004
 815.00  1.8328E-004
 815.50  1.7617E-004
 816.00  1.6953E-004
 816.50  1.6322E-004
 817.00  1.5698E-004
 817.50  1.5107E-004
 818.00  1.4563E-004
 818.50  1.4034E-004
 819.00  1.3526E-004
 819.50  1.3052E-004
 820.00  1.2610E-004
 820.50  1.2169E-004
 821.00  1.1766E-004
 821.50  1.1376E-004
 822.00  1.1025E-004
 822.50  1.0658E-004
 823.00  1.0321E-004
 823.50  9.9670E-005
 824.00  9.6160E-005
 824.50  9.2582E-005
 825.00  8.9231E-005
 825.50  8.6089E-005
 826.00  8.3292E-005
 826.50  8.1050E-005
 827.00  7.9350E-005
 827.50  7.7647E-005
 828.00  7.5979E-005
 828.50  7.4729E-005
 829.00  7.3287E-005
 829.50  7.1522E-005
 830.00  6.9707E-005
 830.50  6.7618E-005
 831.00  6.5051E-005
 831.50  6.2512E-005
 832.00  6.0296E-005
 832.50  5.8328E-005
 833.00  5.6746E-005
 833.50  5.5235E-005
 834.00  5.3540E-005
 834.50  5.1995E-005
 835.00  5.1028E-005
 835.50  5.0184E-005
 836.00  4.9121E-005
 836.50  4.8377E-005
 837.00  4.7563E-005
 837.50  4.6405E-005
 838.00  4.5391E-005
 838.50  4.4488E-005
 839.00  4.3529E-005
 839.50  4.2706E-005
 840.00  4.1760E-005
 840.50  4.0767E-005
 841.00  3.9865E-005
 841.50  3.8790E-005
 842.00  3.7626E-005
 842.50  3.6635E-005
 843.00  3.5513E-005
 843.50  3.4773E-005
 844.00  3.4361E-005
 844.50  3.4040E-005
 845.00  3.3811E-005
 845.50  3.3729E-005
 846.00  3.3443E-005
 846.50  3.3069E-005
 847.00  3.2555E-005
 847.50  3.2054E-005
 848.00  3.1580E-005
 848.50  3.1226E-005
 849.00  3.1053E-005
 849.50  3.0931E-005
 850.00  3.0825E-005
 850.50  3.0417E-005
 851.00  2.9805E-005
 851.50  2.8894E-005
 852.00  2.8007E-005
 852.50  2.7382E-005
 853.00  2.6936E-005
 853.50  2.6425E-005
 854.00  2.6153E-005
 854.50  2.6168E-005
 855.00  2.5901E-005
 855.50  2.6025E-005
 856.00  2.5831E-005
 856.50  2.5540E-005
 857.00  2.4686E-005
 857.50  2.3908E-005
 858.00  2.3332E-005
 858.50  2.3183E-005
 859.00  2.3028E-005
 859.50  2.3252E-005
 860.00  2.3520E-005
 860.50  2.3348E-005
 861.00  2.2946E-005
 861.50  2.2309E-005
 862.00  2.1447E-005
 862.50  2.0592E-005
 863.00  2.0073E-005
 863.50  1.9303E-005
 864.00  1.9051E-005
 864.50  1.9780E-005
 865.00  2.0480E-005
 865.50  2.0979E-005
 866.00  2.2273E-005
 866.50  2.3359E-005
 867.00  2.3618E-005
 867.50  2.4135E-005
 868.00  2.5083E-005
 868.50  2.6267E-005
 869.00  2.7005E-005
 869.50  2.7992E-005
 870.00  2.8793E-005
 870.50  2.8599E-005
 871.00  2.8235E-005
 871.50  2.7982E-005
 872.00  2.7767E-005
 872.50  2.8004E-005
 873.00  2.8316E-005
 873.50  2.9098E-005
 874.00  2.9698E-005
 874.50  2.9651E-005
 875.00  2.9661E-005
 875.50  2.9853E-005
 876.00  2.9602E-005
 876.50  2.9287E-005
 877.00  2.9302E-005
 877.50  2.9407E-005
 878.00  3.0165E-005
 878.50  3.0108E-005
 879.00  2.9807E-005
 879.50  2.9176E-005
 880.00  2.8269E-005
 880.50  2.6862E-005
 881.00  2.6017E-005
 881.50  2.5326E-005
 882.00  2.4424E-005
 882.50  2.3763E-005
 883.00  2.3211E-005
 883.50  2.2417E-005
 884.00  2.2217E-005
 884.50  2.2753E-005
 885.00  2.2981E-005
 885.50  2.3099E-005
 886.00  2.3238E-005
 886.50  2.2727E-005
 887.00  2.1553E-005
 887.50  2.0535E-005
 888.00  1.9603E-005
 888.50  1.8862E-005
 889.00  1.8320E-005
 889.50  1.8015E-005
 890.00  1.7479E-005
 890.50  1.6764E-005
 891.00  1.5940E-005
 891.50  1.4945E-005
 892.00  1.3518E-005
 892.50  1.3021E-005
 893.00  1.3227E-005
 893.50  1.3538E-005
 894.00  1.3756E-005
 894.50  1.4318E-005
 895.00  1.4415E-005
 895.50  1.4090E-005
 896.00  1.4031E-005
 896.50  1.4219E-005
 897.00  1.4324E-005
 897.50  1.4794E-005
 898.00  1.5788E-005
 898.50  1.6606E-005
 899.00  1.6955E-005
 899.50  1.6937E-005
 900.00  1.6743E-005
 900.50  1.6112E-005
 901.00  1.5056E-005
 901.50  1.4631E-005
 902.00  1.4289E-005
 902.50  1.3643E-005
 903.00  1.3019E-005
 903.50  1.3000E-005
 904.00  1.2847E-005
 904.50  1.2962E-005
 905.00  1.2679E-005
 905.50  1.2571E-005
 906.00  1.2412E-005
 906.50  1.2580E-005
 907.00  1.2544E-005
 907.50  1.2717E-005
 908.00  1.2980E-005
 908.50  1.3096E-005
 909.00  1.2976E-005
 909.50  1.3118E-005
 910.00  1.3179E-005
 910.50  1.2820E-005
 911.00  1.2798E-005
 911.50  1.2839E-005
 912.00  1.3147E-005
 912.50  1.3752E-005
 913.00  1.4447E-005
 913.50  1.4846E-005
 914.00  1.5504E-005
 914.50  1.5723E-005
 915.00  1.5644E-005
 915.50  1.5425E-005
 916.00  1.4421E-005
 916.50  1.3831E-005
 917.00  1.4460E-005
 917.50  1.5356E-005
 918.00  1.6340E-005
 918.50  1.8024E-005
 919.00  1.9209E-005
 919.50  1.9629E-005
 920.00  2.0548E-005
 920.50  2.0955E-005
 921.00  2.0687E-005
 921.50  1.9797E-005
 922.00  1.8178E-005
 922.50  1.6661E-005
 923.00  1.5752E-005
 923.50  1.5006E-005
 924.00  1.4224E-005
 924.50  1.3798E-005
 925.00  1.3323E-005
 925.50  1.2594E-005
 926.00  1.2135E-005
 926.50  1.2051E-005
 927.00  1.1253E-005
 927.50  1.0496E-005
 928.00  9.9015E-006
 928.50  9.3179E-006
 929.00  8.9300E-006
 929.50  9.4996E-006
 930.00  9.7690E-006
 930.50  1.0432E-005
 931.00  1.1342E-005
 931.50  1.1142E-005
 932.00  1.0456E-005
 932.50  9.7178E-006
 933.00  9.2555E-006
 933.50  8.4588E-006
 934.00  8.2103E-006
 934.50  8.6435E-006
 935.00  9.3758E-006
 935.50  1.0119E-005
 936.00  1.1513E-005
 936.50  1.3056E-005
 937.00  1.4111E-005
 937.50  1.4557E-005
 938.00  1.3915E-005
 938.50  1.2337E-005
 939.00  1.0644E-005
 939.50  9.6310E-006
 940.00  9.4989E-006
 940.50  9.7360E-006
 941.00  1.0695E-005
 941.50  1.2437E-005
 942.00  1.4576E-005
 942.50  1.6440E-005
 943.00  1.9001E-005
 943.50  2.1129E-005
 944.00  2.1957E-005
 944.50  2.2322E-005
 945.00  2.1723E-005
 945.50  2.0734E-005
 946.00  1.9693E-005
 946.50  1.9218E-005
 947.00  1.7010E-005
 947.50  1.6158E-005
 948.00  1.5580E-005
 948.50  1.4209E-005
 949.00  1.2631E-005
 949.50  1.1841E-005
 950.00  1.1539E-005
 950.50  1.2098E-005
 951.00  1.5439E-005
 951.50  1.8306E-005
 952.00  2.0836E-005
 952.50  2.2265E-005
 953.00  2.1310E-005
 953.50  1.8613E-005
 954.00  1.6431E-005
 954.50  1.3920E-005
 955.00  1.2076E-005
 955.50  1.2235E-005
 956.00  1.2652E-005
 956.50  1.3311E-005
 957.00  1.4728E-005
 957.50  1.5428E-005
 958.00  1.5344E-005
 958.50  1.6224E-005
 959.00  1.5994E-005
 959.50  1.5734E-005
 960.00  1.6090E-005
 960.50  1.5963E-005
 961.00  1.5035E-005
 961.50  1.4994E-005
 962.00  1.5790E-005
 962.50  1.6832E-005
 963.00  1.8709E-005
 963.50  2.1116E-005
 964.00  2.0695E-005
 964.50  2.0098E-005
 965.00  1.9438E-005
 965.50  2.0212E-005
 966.00  2.1798E-005
 966.50  2.5389E-005
 967.00  2.7733E-005
 967.50  2.9894E-005
 968.00  2.8106E-005
 968.50  2.4214E-005
 969.00  2.1341E-005
 969.50  1.8557E-005
 970.00  1.4786E-005
 970.50  1.2442E-005
 971.00  1.1120E-005
 971.50  9.7806E-006
 972.00  8.1197E-006
 972.50  8.1810E-006
 973.00  9.6115E-006
 973.50  1.0945E-005
 974.00  1.1536E-005
 974.50  1.2243E-005
 975.00  1.2836E-005
 975.50  1.3348E-005
 976.00  1.4112E-005
 976.50  1.4391E-005
 977.00  1.4574E-005
 977.50  1.3974E-005
 978.00  1.4080E-005
 978.50  1.3998E-005
 979.00  1.8291E-005
 979.50  2.1210E-005
 980.00  2.4999E-005
 980.50  2.7317E-005
 981.00  2.9707E-005
 981.50  2.6862E-005
 982.00  2.9392E-005
 982.50  2.6848E-005
 983.00  2.3926E-005
 983.50  2.0864E-005
 984.00  1.8697E-005
 984.50  1.2394E-005
 985.00  9.8333E-006
 985.50  7.4911E-006
 986.00  6.7337E-006
 986.50  1.1012E-005
 987.00  1.7255E-005
 987.50  2.3372E-005
 988.00  2.9903E-005
 988.50  3.4922E-005
 989.00  3.4471E-005
 989.50  3.3013E-005
 990.00  3.1024E-005
 990.50  2.7617E-005
 991.00  2.6193E-005
 991.50  2.7295E-005
 992.00  2.7605E-005
 992.50  2.8134E-005
 993.00  2.6742E-005
 993.50  2.1675E-005
 994.00  1.6405E-005
 994.50  1.6544E-005
 995.00  1.1159E-005
 995.50  6.3601E-006
 996.00  5.7929E-006
 996.50  6.2465E-006
 997.00  2.1693E-006
 997.50  8.7682E-006
 998.00  1.3850E-005
 998.50  1.7578E-005
 999.00  1.8755E-005
 999.50  1.6230E-005
1000.00  7.7595E-006
1000.50  3.6770E-007
1001.00  0.0000E+000
1001.50  0.0000E+000
1002.00  0.0000E+000
1002.50  0.0000E+000
1003.00  0.0000E+000
1003.50  0.0000E+000
1004.00  0.0000E+000
1004.50  0.0000E+000
1005.00  0.0000E+000
1005.50  0.0000E+000
1006.00  0.0000E+000
1006.50  0.0000E+000
1007.00  0.0000E+000
1007.50  0.0000E+000
1008.00  0.0000E+000
1008.50  0.0000E+000
1009.00  0.0000E+000
1009.50  0.0000E+000
1010.00  0.0000E+000
1010.50  0.0000E+000
1011.00  0.0000E+000
1011.50  0.0000E+000
1012.00  0.0000E+000
1012.50  0.0000E+000
1013.00  0.0000E+000
1013.50  0.0000E+000
1014.00  0.0000E+000
1014.50  0.0000E+000
1015.00  0.0000E+000
1015.50  0.0000E+000
1016.00  0.0000E+000
1016.50  0.0000E+000
1017.00  0.0000E+000
1017.50  0.0000E+000
1018.00  0.0000E+000
1018.50  0.0000E+000
1019.00  0.0000E+000
1019.50  0.0000E+000
1020.00  0.0000E+000
1020.50  0.0000E+000
1021.00  0.0000E+000
1021.50  0.0000E+000
1022.00  0.0000E+000
1022.50  0.0000E+000
1023.00  0.0000E+000
1023.50  0.0000E+000
1024.00  0.0000E+000
1024.50  0.0000E+000
1025.00  0.0000E+000
1025.50  0.0000E+000
1026.00  0.0000E+000
1026.50  0.0000E+000
1027.00  0.0000E+000
1027.50  0.0000E+000
1028.00  0.0000E+000
1028.50  0.0000E+000
1029.00  0.0000E+000
1029.50  0.0000E+000
1030.00  0.0000E+000
1030.50  0.0000E+000
1031.00  0.0000E+000
1031.50  0.0000E+000
1032.00  0.0000E+000
1032.50  0.0000E+000
1033.00  0.0000E+000
1033.50  0.0000E+000
1034.00  0.0000E+000
1034.50  0.0000E+000
1035.00  0.0000E+000
1035.50  0.0000E+000
1036.00  0.0000E+000
1036.50  0.0000E+000
1037.00  0.0000E+000
1037.50  0.0000E+000
1038.00  0.0000E+000
1038.50  0.0000E+000
1039.00  0.0000E+000
1039.50  0.0000E+000
1040.00  0.0000E+000
1040.50  0.0000E+000
1041.00  0.0000E+000
1041.50  0.0000E+000
1042.00  0.0000E+000
1042.50  0.0000E+000
1043.00  0.0000E+000
1043.50  0.0000E+000
1044.00  0.0000E+000
1044.50  0.0000E+000
1045.00  0.0000E+000
1045.50  0.0000E+000
1046.00  0.0000E+000
1046.50  0.0000E+000
1047.00  0.0000E+000
1047.50  0.0000E+000
1048.00  0.0000E+000
1048.50  0.0000E+000
1049.00  0.0000E+000
1049.50  0.0000E+000
1050.00  0.0000E+000
1050.50  0.0000E+000
1051.00  0.0000E+000
1051.50  0.0000E+000
1052.00  0.0000E+000
1052.50  0.0000E+000
1053.00  0.0000E+000
1053.50  0.0000E+000
1054.00  0.0000E+000
1054.50  0.0000E+000
1055.00  0.0000E+000
1055.50  0.0000E+000
1056.00  0.0000E+000
1056.50  0.0000E+000
1057.00  0.0000E+000
1057.50  0.0000E+000
1058.00  0.0000E+000
1058.50  0.0000E+000
1059.00  0.0000E+000
1059.50  0.0000E+000
1060.00  0.0000E+000
1060.50  0.0000E+000
1061.00  0.0000E+000
1061.50  0.0000E+000
1062.00  0.0000E+000
1062.50  0.0000E+000
1063.00  0.0000E+000
1063.50  0.0000E+000
1064.00  0.0000E+000
1064.50  0.0000E+000
1065.00  0.0000E+000
1065.50  0.0000E+000
1066.00  0.0000E+000
1066.50  0.0000E+000
1067.00  0.0000E+000
1067.50  0.0000E+000
1068.00  0.0000E+000
1068.50  0.0000E+000
1069.00  0.0000E+000
1069.50  0.0000E+000
1070.00  0.0000E+000
1070.50  0.0000E+000
1071.00  0.0000E+000
1071.50  0.0000E+000
1072.00  0.0000E+000
1072.50  0.0000E+000
1073.00  0.0000E+000
1073.50  0.0000E+000
1074.00  0.0000E+000
1074.50  0.0000E+000
1075.00  0.0000E+000
1075.50  0.0000E+000
1076.00  0.0000E+000
1076.50  0.0000E+000
1077.00  0.0000E+000
1077.50  0.0000E+000
1078.00  0.0000E+000
1078.50  0.0000E+000
1079.00  0.0000E+000
1079.50  0.0000E+000
1080.00  0.0000E+000
1080.50  0.0000E+000
1081.00  0.0000E+000
1081.50  0.0000E+000
1082.00  0.0000E+000
1082.50  0.0000E+000
1083.00  0.0000E+000
1083.50  0.0000E+000
1084.00  0.0000E+000
1084.50  0.0000E+000
1085.00  0.0000E+000
1085.50  0.0000E+000
1086.00  0.0000E+000
1086.50  0.0000E+000
1087.00  0.0000E+000
1087.50  0.0000E+000
1088.00  0.0000E+000
1088.50  0.0000E+000
1089.00  0.0000E+000
1089.50  0.0000E+000
1090.00  0.0000E+000
1090.50  0.0000E+000
1091.00  0.0000E+000
1091.50  0.0000E+000
1092.00  0.0000E+000
1092.50  0.0000E+000
1093.00  0.0000E+000
1093.50  0.0000E+000
1094.00  0.0000E+000
1094.50  0.0000E+000
1095.00  0.0000E+000
1095.50  0.0000E+000
1096.00  0.0000E+000
1096.50  0.0000E+000
1097.00  0.0000E+000
1097.50  0.0000E+000
1098.00  0.0000E+000
1098.50  0.0000E+000
1099.00  0.0000E+000
1099.50  0.0000E+000
1100.00  0.0000E+000
1100.50  0.0000E+000
1101.00  0.0000E+000
1101.50  0.0000E+000
1102.00  0.0000E+000
1102.50  0.0000E+000
1103.00  0.0000E+000
1103.50  0.0000E+000
1104.00  0.0000E+000
1104.50  0.0000E+000
1105.00  0.0000E+000
1105.50  0.0000E+000
1106.00  0.0000E+000
1106.50  0.0000E+000
1107.00  0.0000E+000
1107.50  0.0000E+000
1108.00  0.0000E+000
1108.50  0.0000E+000
1109.00  0.0000E+000
1109.50  0.0000E+000
1110.00  0.0000E+000
1110.50  0.0000E+000
1111.00  0.0000E+000
1111.50  0.0000E+000
1112.00  0.0000E+000
1112.50  0.0000E+000
1113.00  0.0000E+000
1113.50  0.0000E+000
1114.00  0.0000E+000
1114.50  0.0000E+000
1115.00  0.0000E+000
1115.50  0.0000E+000
1116.00  0.0000E+000
1116.50  0.0000E+000
1117.00  0.0000E+000
1117.50  0.0000E+000
1118.00  0.0000E+000
1118.50  0.0000E+000
1119.00  0.0000E+000
1119.50  0.0000E+000
1120.00  0.0000E+000
1120.50  0.0000E+000
1121.00  0.0000E+000
1121.50  0.0000E+000
1122.00  0.0000E+000
1122.50  0.0000E+000
1123.00  0.0000E+000
1123.50  0.0000E+000
1124.00  0.0000E+000
1124.50  0.0000E+000
1125.00  0.0000E+000
1125.50  0.0000E+000
1126.00  0.0000E+000
1126.50  0.0000E+000
1127.00  0.0000E+000
1127.50  0.0000E+000
: 6
